spectrometer_dunkelfeld_100nm_einzel_at_650.00nm_cut_at_1436.50Y_02.dat
02.05.2022
13:37:49
cut middle at Y: 1436.50
top cursor: 1494 down cursor: 1379 mean of: 115 lines , 2560 datapoints
wavelength(nm)	intensity[arb. units]
485.997	560.478
486.125	520.383
486.253	517.322
486.381	516.130
486.510	516.922
486.638	528.548
486.766	527.322
486.894	528.052
487.022	530.122
487.150	549.009
487.278	536.704
487.406	539.626
487.535	544.026
487.663	543.026
487.791	540.400
487.919	547.913
488.047	554.678
488.175	550.409
488.303	551.896
488.431	555.643
488.560	573.417
488.688	570.870
488.816	574.209
488.944	575.174
489.072	582.539
489.200	579.548
489.328	582.470
489.456	583.226
489.585	592.670
489.713	586.530
489.841	591.139
489.969	597.261
490.097	594.400
490.225	595.165
490.353	610.330
490.481	612.200
490.610	616.591
490.738	615.983
490.866	608.896
490.994	616.304
491.122	622.409
491.250	622.835
491.378	629.774
491.506	632.017
491.635	625.139
491.763	633.139
491.891	640.157
492.019	652.948
492.147	640.235
492.275	642.765
492.403	643.313
492.531	658.939
492.660	656.400
492.788	658.330
492.916	656.174
493.044	664.939
493.172	673.696
493.300	667.965
493.428	674.957
493.556	678.200
493.685	684.678
493.813	689.948
493.941	688.548
494.069	696.261
494.197	699.617
494.325	702.843
494.453	711.965
494.581	704.130
494.710	709.400
494.838	712.391
494.966	720.617
495.094	713.296
495.222	719.452
495.350	726.070
495.478	739.930
495.606	740.774
495.735	736.896
495.863	741.435
495.991	744.504
496.119	742.374
496.247	751.209
496.375	736.383
496.503	756.609
496.631	773.930
496.760	753.617
496.888	758.096
497.016	762.887
497.144	770.913
497.272	761.470
497.400	766.904
497.528	772.278
497.656	764.852
497.785	762.470
497.913	779.252
498.041	778.730
498.169	784.591
498.297	780.617
498.425	781.974
498.553	794.704
498.681	790.435
498.810	798.965
498.938	787.043
499.066	803.035
499.194	799.496
499.322	801.878
499.450	798.313
499.578	803.791
499.706	810.200
499.835	829.817
499.963	815.913
500.091	819.435
500.219	829.365
500.347	826.600
500.475	839.539
500.603	836.174
500.731	845.435
500.860	845.122
500.988	850.617
501.116	854.313
501.244	862.626
501.372	869.878
501.500	864.191
501.628	865.652
501.756	874.817
501.885	883.070
502.013	883.426
502.141	881.348
502.269	891.548
502.397	885.261
502.525	887.635
502.653	901.357
502.781	898.435
502.910	906.217
503.038	920.365
503.166	907.574
503.294	909.809
503.422	915.643
503.550	920.487
503.678	920.765
503.806	926.270
503.935	924.009
504.063	936.626
504.191	930.217
504.319	948.974
504.447	932.113
504.575	933.783
504.703	944.070
504.831	948.304
504.960	949.000
505.088	946.609
505.216	952.200
505.344	952.904
505.472	948.296
505.600	969.122
505.728	968.870
505.856	970.557
505.985	964.783
506.113	984.826
506.241	989.948
506.369	993.487
506.497	983.826
506.625	1002.652
506.753	996.157
506.881	1005.217
507.010	1020.678
507.138	1016.626
507.266	1028.809
507.394	1030.348
507.522	1033.774
507.650	1047.843
507.778	1051.539
507.906	1052.748
508.035	1056.209
508.163	1073.626
508.291	1075.287
508.419	1086.817
508.547	1079.287
508.675	1100.409
508.803	1094.496
508.931	1098.887
509.060	1099.870
509.188	1113.913
509.316	1108.817
509.444	1114.391
509.572	1122.722
509.700	1127.357
509.828	1140.243
509.956	1145.687
510.085	1129.470
510.213	1130.539
510.341	1141.678
510.469	1160.574
510.597	1157.948
510.725	1149.417
510.853	1171.400
510.981	1168.861
511.110	1171.809
511.238	1183.730
511.366	1168.522
511.494	1164.522
511.622	1179.461
511.750	1176.270
511.878	1194.096
512.006	1194.200
512.135	1198.991
512.263	1221.400
512.391	1209.043
512.519	1215.278
512.647	1220.704
512.775	1231.400
512.903	1226.878
513.031	1228.591
513.160	1229.417
513.288	1243.696
513.416	1246.974
513.544	1233.817
513.672	1234.600
513.800	1241.070
513.928	1254.148
514.056	1255.348
514.185	1253.226
514.313	1251.739
514.441	1246.557
514.569	1252.261
514.697	1273.417
514.825	1285.400
514.953	1267.191
515.081	1266.330
515.210	1268.765
515.338	1285.270
515.466	1270.722
515.594	1285.009
515.722	1274.522
515.850	1283.078
515.978	1294.730
516.106	1289.609
516.235	1300.391
516.363	1306.113
516.491	1310.461
516.619	1315.922
516.747	1315.930
516.875	1314.713
517.003	1323.304
517.131	1325.443
517.260	1323.530
517.388	1330.739
517.516	1338.661
517.644	1350.000
517.772	1369.565
517.900	1365.548
518.028	1361.704
518.156	1380.391
518.284	1386.452
518.413	1386.000
518.541	1396.791
518.669	1398.983
518.797	1401.504
518.925	1410.435
519.053	1419.443
519.181	1423.330
519.309	1436.226
519.438	1447.035
519.566	1434.626
519.694	1448.609
519.822	1461.452
519.950	1474.930
520.078	1463.304
520.206	1470.313
520.334	1480.965
520.463	1499.035
520.591	1493.504
520.719	1516.878
520.847	1499.261
520.975	1515.643
521.103	1516.035
521.231	1517.800
521.359	1524.113
521.488	1522.539
521.616	1530.574
521.744	1531.043
521.872	1538.026
522.000	1522.583
522.128	1552.661
522.256	1551.887
522.384	1560.165
522.513	1563.687
522.641	1560.730
522.769	1571.791
522.897	1566.157
523.025	1590.548
523.153	1579.913
523.281	1585.817
523.409	1583.209
523.538	1590.687
523.666	1595.148
523.794	1605.948
523.922	1598.400
524.050	1622.096
524.178	1619.209
524.306	1609.148
524.434	1616.426
524.563	1630.139
524.691	1657.470
524.819	1644.539
524.947	1658.713
525.075	1651.565
525.203	1673.730
525.331	1671.852
525.459	1689.374
525.588	1683.217
525.716	1697.365
525.844	1715.809
525.972	1706.104
526.100	1726.409
526.228	1740.600
526.356	1740.470
526.484	1751.296
526.613	1762.974
526.741	1761.826
526.869	1779.452
526.997	1781.609
527.125	1785.443
527.253	1788.696
527.381	1814.270
527.509	1799.661
527.638	1821.174
527.766	1835.157
527.894	1843.452
528.022	1862.930
528.150	1834.696
528.278	1859.652
528.406	1867.226
528.534	1865.296
528.663	1878.348
528.791	1912.435
528.919	1901.887
529.047	1953.617
529.175	1876.922
529.303	1904.530
529.431	1898.261
529.559	1922.843
529.688	1901.983
529.816	1924.226
529.944	1976.765
530.072	1933.504
530.200	1918.809
530.328	1943.704
530.456	1960.191
530.584	1929.722
530.713	1964.522
530.841	1978.817
530.969	1958.130
531.097	1968.974
531.225	1990.452
531.353	2039.130
531.481	2001.461
531.609	2091.600
531.738	1990.009
531.866	2060.096
531.994	2062.930
532.122	2112.730
532.250	2065.774
532.378	2044.304
532.506	2035.183
532.634	2040.939
532.763	2027.991
532.891	2058.843
533.019	2071.704
533.147	2061.391
533.275	2063.574
533.403	2121.017
533.531	2096.539
533.659	2105.783
533.788	2095.139
533.916	2092.870
534.044	2132.983
534.172	2146.800
534.300	2147.087
534.428	2150.139
534.556	2279.409
534.684	2167.826
534.813	2170.826
534.941	2164.252
535.069	2189.357
535.197	2194.774
535.325	2191.122
535.453	2220.409
535.581	2276.104
535.709	2214.122
535.838	2240.096
535.966	2248.835
536.094	2258.148
536.222	2285.878
536.350	2253.157
536.478	2267.748
536.606	2282.096
536.734	2264.078
536.863	2281.600
536.991	2312.835
537.119	2306.496
537.247	2287.626
537.375	2408.861
537.503	2300.061
537.631	2329.157
537.759	2339.191
537.888	2321.278
538.016	2449.383
538.144	2390.774
538.272	2365.843
538.400	2399.574
538.528	2372.417
538.656	2393.217
538.784	2396.713
538.913	2465.774
539.041	2440.757
539.169	2432.139
539.297	2436.991
539.425	2508.983
539.553	2461.243
539.681	2512.313
539.809	2494.078
539.938	2487.000
540.066	2476.417
540.194	2498.148
540.322	2559.113
540.450	2571.209
540.578	2517.443
540.706	2543.026
540.834	2566.348
540.963	2604.835
541.091	2549.791
541.219	2566.696
541.347	2609.304
541.475	2598.504
541.603	2591.357
541.731	2586.496
541.859	2601.600
541.988	2600.070
542.116	2741.722
542.244	2629.348
542.372	2743.087
542.500	2646.817
542.628	2692.739
542.756	2655.870
542.884	2675.739
543.013	2676.835
543.141	2710.878
543.269	2700.843
543.397	2664.200
543.525	2701.704
543.653	2770.017
543.781	2699.643
543.909	2696.696
544.038	2759.991
544.166	2763.122
544.294	2831.600
544.422	2707.174
544.550	2753.809
544.678	2772.383
544.806	2740.861
544.934	2725.470
545.063	2790.130
545.191	2847.339
545.319	2771.800
545.447	2729.791
545.575	2757.643
545.703	2790.139
545.831	2805.017
545.959	2768.165
546.088	2761.609
546.216	2770.417
546.344	2777.548
546.472	2918.443
546.600	2822.287
546.728	2816.652
546.856	2831.191
546.984	2831.374
547.113	2889.383
547.241	2856.591
547.369	2910.513
547.497	2885.817
547.625	2903.600
547.753	2917.843
547.881	2909.400
548.009	2925.139
548.138	2963.035
548.266	2954.696
548.394	3039.687
548.522	2986.478
548.650	3077.383
548.778	3056.122
548.906	3011.417
549.034	3091.417
549.163	3057.922
549.291	3032.878
549.419	3065.696
549.547	3175.183
549.675	3091.104
549.803	3090.730
549.931	3109.583
550.059	3106.522
550.188	3152.148
550.316	3150.296
550.444	3181.061
550.572	3182.261
550.700	3167.365
550.828	3194.461
550.956	3190.696
551.084	3248.557
551.213	3217.957
551.341	3268.800
551.469	3268.183
551.597	3309.957
551.725	3308.409
551.853	3302.774
551.981	3321.852
552.109	3330.965
552.238	3360.070
552.366	3340.826
552.494	3366.583
552.622	3362.252
552.750	3368.739
552.878	3397.478
553.006	3415.383
553.134	3398.270
553.263	3392.235
553.391	3425.104
553.519	3524.974
553.647	3452.017
553.775	3452.748
553.903	3517.826
554.031	3483.713
554.159	3444.722
554.288	3479.826
554.416	3477.043
554.544	3512.652
554.672	3491.400
554.800	3493.043
554.928	3503.965
555.056	3504.391
555.184	3546.635
555.313	3526.426
555.441	3497.391
555.569	3522.270
555.697	3577.817
555.825	3555.626
555.953	3564.478
556.081	3550.304
556.209	3584.470
556.338	3579.096
556.466	3684.530
556.594	3583.696
556.722	3641.843
556.850	3685.409
556.978	3571.217
557.106	3626.504
557.234	3634.687
557.363	3680.200
557.491	3662.774
557.619	3673.739
557.747	3688.696
557.875	3656.661
558.003	3671.130
558.131	3681.096
558.259	3701.557
558.388	3675.078
558.516	3686.852
558.644	3704.330
558.772	3771.939
558.900	3725.652
559.028	3736.800
559.156	3767.713
559.284	3745.991
559.413	3774.513
559.541	3763.113
559.669	3815.583
559.797	3860.096
559.925	3824.765
560.053	3878.539
560.181	3834.739
560.309	3874.670
560.438	3877.696
560.566	3902.887
560.694	3863.322
560.822	4018.817
560.950	3908.104
561.078	3929.991
561.206	4042.983
561.334	3946.670
561.463	3928.626
561.591	4037.757
561.719	3960.722
561.847	4019.974
561.975	3987.791
562.103	4020.426
562.231	4071.826
562.359	3995.791
562.488	4061.791
562.616	4064.922
562.744	4092.287
562.872	4087.043
563.000	4072.591
563.128	4087.635
563.256	4121.922
563.384	4219.139
563.513	4107.391
563.641	4173.817
563.769	4208.983
563.897	4163.026
564.025	4202.983
564.153	4196.826
564.281	4259.235
564.409	4235.696
564.538	4225.626
564.666	4262.800
564.794	4275.765
564.922	4253.913
565.050	4330.174
565.178	4281.174
565.306	4313.470
565.434	4337.478
565.563	4449.835
565.691	4383.600
565.819	4494.722
565.947	4372.609
566.075	4396.548
566.203	4420.496
566.331	4395.183
566.459	4400.965
566.588	4406.496
566.716	4467.670
566.844	4462.009
566.972	4481.348
567.100	4539.643
567.228	4584.930
567.356	4604.000
567.484	4542.835
567.613	4597.557
567.741	4618.000
567.869	4578.157
567.997	4608.965
568.125	4667.626
568.253	4715.930
568.381	4649.765
568.509	4710.870
568.638	4683.730
568.766	4758.096
568.894	4781.078
569.022	4724.304
569.150	4819.896
569.278	4753.478
569.406	4875.104
569.534	4850.522
569.663	4816.252
569.791	4812.383
569.919	4879.722
570.047	4990.626
570.175	4869.330
570.303	4872.870
570.431	4894.478
570.559	4946.583
570.688	5057.157
570.816	4934.617
570.944	4987.530
571.072	4956.522
571.200	4942.470
571.328	4979.626
571.456	4986.530
571.584	4981.861
571.713	5003.426
571.841	5054.391
571.969	5156.417
572.097	5163.165
572.225	5029.591
572.353	5044.600
572.481	5041.226
572.609	5109.061
572.738	5096.704
572.866	5073.174
572.994	5092.817
573.122	5104.957
573.250	5137.600
573.378	5095.635
573.506	5104.809
573.634	5153.417
573.763	5138.843
573.891	5168.774
574.019	5183.313
574.147	5163.035
574.275	5186.626
574.403	5263.400
574.531	5204.948
574.659	5230.922
574.788	5217.296
574.916	5370.052
575.044	5269.809
575.172	5322.878
575.300	5267.400
575.428	5302.296
575.556	5334.817
575.684	5362.652
575.813	5383.261
575.941	5378.617
576.069	5398.948
576.197	5481.348
576.325	5402.226
576.453	5448.122
576.581	5461.157
576.709	5479.800
576.838	5499.104
576.966	5615.643
577.094	5651.443
577.222	5617.443
577.350	5604.417
577.478	5683.183
577.606	5667.661
577.734	5714.374
577.863	5719.757
577.991	5755.904
578.119	5820.200
578.247	5794.504
578.375	5867.009
578.503	5843.843
578.631	5825.165
578.759	5876.817
578.888	6030.139
579.016	5897.122
579.144	5925.922
579.272	5944.270
579.400	5975.009
579.528	6036.478
579.656	6127.670
579.784	6057.774
579.913	6067.061
580.041	6268.843
580.169	6179.548
580.297	6204.591
580.425	6201.487
580.553	6234.791
580.681	6243.852
580.809	6257.339
580.938	6286.983
581.066	6373.278
581.194	6363.843
581.322	6353.548
581.450	6427.522
581.578	6445.939
581.706	6438.417
581.834	6491.139
581.963	6511.191
582.091	6523.070
582.219	6567.374
582.347	6614.600
582.475	6616.635
582.603	6633.957
582.731	6698.348
582.859	6649.026
582.988	6711.070
583.116	6737.983
583.244	6733.670
583.372	6766.191
583.500	6763.243
583.628	6836.278
583.756	6817.487
583.884	6846.478
584.013	6897.417
584.141	6877.696
584.269	6926.078
584.397	6960.096
584.525	6942.878
584.653	6981.122
584.781	7019.078
584.909	7028.365
585.038	7052.226
585.166	7050.217
585.294	7151.365
585.422	7112.722
585.550	7129.226
585.678	7104.548
585.806	7181.574
585.934	7155.878
586.063	7193.330
586.191	7170.678
586.319	7224.730
586.447	7200.235
586.575	7227.783
586.703	7302.226
586.831	7249.148
586.959	7312.287
587.088	7280.348
587.216	7339.339
587.344	7327.496
587.472	7471.835
587.600	7361.600
587.728	7353.191
587.856	7364.365
587.984	7373.122
588.113	7448.322
588.241	7426.052
588.369	7457.348
588.497	7455.878
588.625	7442.617
588.753	7590.748
588.881	7502.287
589.009	7526.922
589.138	7559.696
589.266	7557.052
589.394	7593.157
589.522	7612.287
589.650	7723.513
589.778	7681.739
589.906	7751.617
590.034	7667.426
590.163	7705.748
590.291	7737.826
590.419	7747.574
590.547	7779.348
590.675	7798.722
590.803	7830.957
590.931	7828.122
591.059	7849.600
591.188	7824.652
591.316	7795.261
591.444	7791.774
591.572	7826.722
591.700	7805.757
591.828	7798.026
591.956	7808.678
592.084	7832.191
592.213	7857.426
592.341	7912.843
592.469	7960.696
592.597	7975.357
592.725	7969.200
592.853	8045.530
592.981	8099.957
593.109	8142.043
593.238	8111.000
593.366	8147.557
593.494	8183.800
593.622	8287.583
593.750	8268.878
593.878	8349.148
594.006	8330.591
594.134	8338.165
594.263	8411.843
594.391	8333.035
594.519	8415.443
594.647	8428.226
594.775	8388.574
594.903	8414.417
595.031	8463.113
595.159	8436.922
595.288	8488.730
595.416	8489.357
595.544	8556.809
595.672	8516.278
595.800	8644.304
595.928	8615.757
596.056	8642.800
596.184	8628.243
596.313	8820.574
596.441	8710.974
596.569	8757.261
596.697	8738.287
596.825	8770.052
596.953	8820.217
597.081	8867.713
597.209	8868.383
597.338	8913.409
597.466	8937.983
597.594	8958.417
597.722	9132.243
597.850	9047.435
597.978	9126.904
598.106	9197.052
598.234	9223.078
598.363	9182.087
598.491	9334.348
598.619	9289.922
598.747	9308.113
598.875	9444.426
599.003	9444.609
599.131	9500.426
599.259	9527.374
599.388	9498.261
599.516	9591.809
599.644	9663.017
599.772	9744.165
599.900	9705.391
600.028	9730.913
600.156	9869.217
600.284	9822.809
600.413	9892.591
600.541	9979.591
600.669	10040.548
600.797	10010.565
600.925	10066.913
601.053	10131.843
601.181	10183.530
601.309	10162.687
601.438	10198.896
601.566	10253.070
601.694	10344.774
601.822	10532.774
601.950	10374.896
602.078	10447.583
602.206	10545.330
602.334	10532.017
602.463	10537.261
602.591	10663.209
602.719	10628.591
602.847	10819.687
602.975	10699.261
603.103	10740.374
603.231	10769.087
603.359	10828.643
603.488	10820.191
603.616	10862.374
603.744	10907.530
603.872	10893.878
604.000	10952.061
604.128	10977.496
604.256	10988.287
604.384	11051.017
604.513	11129.504
604.641	11150.696
604.769	11209.713
604.897	11143.896
605.025	11147.157
605.153	11220.348
605.281	11302.626
605.409	11291.974
605.538	11309.583
605.666	11364.104
605.794	11403.009
605.922	11412.183
606.050	11448.939
606.178	11553.243
606.306	11526.817
606.434	11584.365
606.563	11605.313
606.691	11646.278
606.819	11677.183
606.947	11658.957
607.075	11669.565
607.203	11673.435
607.331	11731.400
607.459	11780.087
607.588	11809.113
607.716	11854.922
607.844	11895.061
607.972	11958.739
608.100	11861.800
608.228	11915.870
608.356	11937.113
608.484	11994.078
608.613	12074.383
608.741	12092.417
608.869	12134.739
608.997	12208.722
609.125	12204.991
609.253	12197.896
609.381	12243.052
609.509	12256.522
609.638	12329.904
609.766	12330.426
609.894	12386.809
610.022	12414.861
610.150	12524.861
610.278	12455.157
610.406	12502.261
610.534	12512.391
610.663	12543.930
610.791	12682.200
610.919	12592.652
611.047	12684.643
611.175	12677.383
611.303	12778.270
611.431	12799.913
611.559	12908.791
611.688	12871.635
611.816	12899.148
611.944	12939.678
612.072	12982.887
612.200	13088.730
612.328	13163.991
612.456	13116.565
612.584	13322.878
612.713	13218.965
612.841	13336.983
612.969	13297.965
613.097	13345.609
613.225	13431.122
613.353	13433.409
613.481	13494.661
613.609	13573.200
613.738	13599.496
613.866	13711.330
613.994	13768.678
614.122	13826.365
614.250	13811.974
614.378	13884.096
614.506	13944.687
614.634	14000.383
614.763	14105.896
614.891	14164.348
615.019	14212.652
615.147	14318.235
615.275	14292.278
615.403	14361.922
615.531	14387.817
615.659	14508.096
615.788	14535.287
615.916	14674.704
616.044	14656.748
616.172	14872.087
616.300	14810.043
616.428	14932.017
616.556	14926.200
616.684	15013.157
616.813	15058.904
616.941	15095.000
617.069	15150.235
617.197	15421.670
617.325	15356.983
617.453	15437.183
617.581	15463.252
617.709	15508.609
617.838	15600.000
617.966	15683.391
618.094	15737.565
618.222	15826.591
618.350	15923.322
618.478	15926.817
618.606	16053.843
618.734	16022.391
618.863	16133.957
618.991	16087.348
619.119	16192.087
619.247	16250.443
619.375	16331.626
619.503	16448.130
619.631	16572.461
619.759	16522.591
619.888	16594.339
620.016	16691.330
620.144	16763.626
620.272	16768.670
620.400	16923.461
620.528	16933.443
620.656	17100.843
620.784	17118.383
620.913	17175.400
621.041	17285.348
621.169	17333.957
621.297	17359.530
621.425	17402.887
621.553	17495.235
621.681	17562.339
621.809	17630.017
621.938	17733.983
622.066	17829.870
622.194	17831.113
622.322	17945.191
622.450	17977.383
622.578	18032.670
622.706	18007.870
622.834	18076.504
622.963	18148.026
623.091	18117.157
623.219	18188.983
623.347	18307.209
623.475	18314.383
623.603	18333.757
623.731	18474.052
623.859	18511.957
623.988	18603.791
624.116	18620.470
624.244	18690.922
624.372	18763.757
624.500	18821.113
624.628	18851.530
624.756	18876.678
624.884	19030.661
625.013	19212.261
625.141	19151.904
625.269	19161.191
625.397	19315.930
625.525	19439.765
625.653	19384.330
625.781	19515.670
625.909	19481.165
626.038	19507.504
626.166	19587.583
626.294	19610.904
