spectrometer_wei?lichtspektrum_at_650.00nm_cut_at_1436.50Y_01.dat
02.05.2022
13:46:56
cut middle at Y: 1436.50
top cursor: 1494 down cursor: 1379 mean of: 115 lines , 2560 datapoints
wavelength(nm)	intensity[arb. units]
485.997	4716.722
486.125	4369.609
486.253	4293.757
486.381	4302.791
486.510	4351.574
486.638	4431.826
486.766	4380.348
486.894	4412.113
487.022	4477.078
487.150	4461.243
487.278	4509.530
487.406	4543.643
487.535	4579.887
487.663	4652.287
487.791	4628.391
487.919	4668.330
488.047	4673.617
488.175	4742.983
488.303	4776.583
488.431	4774.243
488.560	4847.026
488.688	4863.391
488.816	4864.130
488.944	4957.557
489.072	4942.348
489.200	4997.478
489.328	5033.600
489.456	5109.617
489.585	5109.496
489.713	5135.287
489.841	5125.565
489.969	5182.478
490.097	5230.965
490.225	5233.461
490.353	5286.183
490.481	5269.661
490.610	5316.635
490.738	5355.887
490.866	5495.148
490.994	5403.339
491.122	5518.617
491.250	5501.948
491.378	5481.296
491.506	5635.035
491.635	5573.339
491.763	5608.487
491.891	5620.409
492.019	5758.365
492.147	5698.652
492.275	5697.739
492.403	5695.896
492.531	5930.348
492.660	5846.357
492.788	5861.104
492.916	5918.409
493.044	5886.783
493.172	5953.217
493.300	5988.348
493.428	5981.400
493.556	6073.435
493.685	6090.278
493.813	6119.774
493.941	6152.348
494.069	6201.583
494.197	6212.626
494.325	6261.383
494.453	6466.113
494.581	6342.809
494.710	6387.635
494.838	6413.704
494.966	6502.165
495.094	6438.017
495.222	6548.496
495.350	6526.643
495.478	6555.287
495.606	6589.009
495.735	6618.304
495.863	6639.383
495.991	6667.835
496.119	6721.817
496.247	6769.296
496.375	6701.530
496.503	6757.243
496.631	6761.374
496.760	6758.687
496.888	6823.713
497.016	6829.148
497.144	6840.383
497.272	6858.730
497.400	6901.374
497.528	6878.783
497.656	6896.043
497.785	6904.800
497.913	6922.148
498.041	6945.783
498.169	6934.174
498.297	6951.226
498.425	7136.713
498.553	6993.565
498.681	7030.878
498.810	7114.661
498.938	7054.817
499.066	7069.183
499.194	7179.609
499.322	7196.774
499.450	7157.365
499.578	7200.026
499.706	7256.817
499.835	7282.722
499.963	7281.330
500.091	7349.122
500.219	7380.835
500.347	7407.287
500.475	7412.548
500.603	7440.104
500.731	7481.904
500.860	7504.557
500.988	7582.235
501.116	7549.939
501.244	7648.122
501.372	7696.730
501.500	7704.183
501.628	7743.896
501.756	7749.157
501.885	7810.296
502.013	7714.600
502.141	7841.070
502.269	7800.078
502.397	7965.200
502.525	7857.904
502.653	7955.113
502.781	7913.739
502.910	7922.904
503.038	7976.704
503.166	7992.843
503.294	7981.330
503.422	8008.104
503.550	8023.583
503.678	8014.461
503.806	8048.713
503.935	8063.696
504.063	8083.774
504.191	8127.191
504.319	8150.200
504.447	8108.913
504.575	8152.000
504.703	8234.243
504.831	8132.139
504.960	8122.365
505.088	8173.235
505.216	8270.783
505.344	8325.261
505.472	8263.565
505.600	8239.209
505.728	8328.043
505.856	8320.835
505.985	8376.696
506.113	8415.626
506.241	8431.304
506.369	8456.896
506.497	8451.791
506.625	8583.522
506.753	8533.200
506.881	8628.243
507.010	8615.209
507.138	8633.383
507.266	8766.061
507.394	8708.304
507.522	8819.043
507.650	8777.261
507.778	8827.209
507.906	8881.009
508.035	8892.209
508.163	8949.148
508.291	8971.157
508.419	9112.591
508.547	9099.330
508.675	9169.096
508.803	9112.252
508.931	9202.200
509.060	9188.417
509.188	9192.513
509.316	9214.339
509.444	9238.948
509.572	9400.270
509.700	9348.504
509.828	9408.461
509.956	9403.791
510.085	9415.435
510.213	9432.904
510.341	9439.409
510.469	9474.704
510.597	9486.852
510.725	9485.087
510.853	9550.583
510.981	9567.591
511.110	9490.000
511.238	9555.574
511.366	9576.226
511.494	9581.904
511.622	9582.139
511.750	9619.591
511.878	9680.843
512.006	9611.452
512.135	9679.661
512.263	9670.096
512.391	9718.157
512.519	9743.122
512.647	9708.809
512.775	9754.426
512.903	9766.357
513.031	9732.643
513.160	9737.443
513.288	9846.130
513.416	9735.591
513.544	9781.383
513.672	9761.774
513.800	9798.504
513.928	9814.704
514.056	9826.765
514.185	9817.843
514.313	9795.348
514.441	9928.217
514.569	9837.504
514.697	9862.304
514.825	9812.000
514.953	9797.574
515.081	9827.670
515.210	9866.704
515.338	9949.722
515.466	9861.661
515.594	9891.200
515.722	9856.843
515.850	9893.704
515.978	9878.757
516.106	9875.400
516.235	9881.209
516.363	9908.487
516.491	9905.957
516.619	9929.696
516.747	10028.417
516.875	10009.417
517.003	10020.635
517.131	10038.530
517.260	9999.104
517.388	10051.261
517.516	10103.174
517.644	10086.626
517.772	10216.861
517.900	10186.957
518.028	10237.009
518.156	10280.374
518.284	10269.765
518.413	10333.974
518.541	10416.122
518.669	10382.496
518.797	10422.826
518.925	10434.322
519.053	10508.452
519.181	10486.200
519.309	10511.557
519.438	10568.704
519.566	10622.678
519.694	10601.765
519.822	10712.104
519.950	10636.217
520.078	10699.896
520.206	10733.217
520.334	10764.374
520.463	10765.757
520.591	10762.983
520.719	10796.870
520.847	10845.696
520.975	10816.870
521.103	10891.304
521.231	10861.391
521.359	11011.226
521.488	10910.678
521.616	10947.452
521.744	10867.270
521.872	10958.722
522.000	10865.470
522.128	10894.357
522.256	10915.017
522.384	10918.043
522.513	10911.417
522.641	10909.235
522.769	10972.461
522.897	11007.835
523.025	10987.313
523.153	10970.878
523.281	11040.096
523.409	10962.235
523.538	11016.722
523.666	10962.174
523.794	11048.783
523.922	11059.843
524.050	11011.765
524.178	11067.122
524.306	11088.417
524.434	11146.226
524.563	11151.174
524.691	11293.617
524.819	11139.504
524.947	11190.661
525.075	11161.800
525.203	11218.652
525.331	11268.800
525.459	11396.557
525.588	11309.043
525.716	11428.922
525.844	11419.017
525.972	11463.252
526.100	11473.739
526.228	11534.070
526.356	11505.939
526.484	11617.504
526.613	11564.635
526.741	11686.235
526.869	11692.704
526.997	11784.052
527.125	11767.896
527.253	11784.817
527.381	11863.539
527.509	11817.600
527.638	11923.783
527.766	12024.983
527.894	12011.409
528.022	12079.400
528.150	12026.748
528.278	12122.548
528.406	12119.452
528.534	12119.939
528.663	12161.939
528.791	12279.183
528.919	12229.009
529.047	12358.530
529.175	12222.374
529.303	12302.670
529.431	12273.252
529.559	12339.774
529.688	12320.939
529.816	12330.939
529.944	12420.304
530.072	12323.096
530.200	12352.609
530.328	12402.617
530.456	12387.130
530.584	12391.078
530.713	12433.061
530.841	12442.226
530.969	12461.548
531.097	12432.513
531.225	12447.443
531.353	12545.748
531.481	12456.835
531.609	12645.530
531.738	12459.339
531.866	12602.070
531.994	12569.096
532.122	12682.730
532.250	12541.087
532.378	12522.713
532.506	12544.043
532.634	12562.374
532.763	12528.096
532.891	12592.043
533.019	12575.017
533.147	12597.957
533.275	12544.496
533.403	12655.070
533.531	12659.104
533.659	12625.939
533.788	12649.052
533.916	12629.243
534.044	12739.878
534.172	12753.191
534.300	12758.035
534.428	12768.974
534.556	12975.035
534.684	12813.417
534.813	12786.783
534.941	12827.896
535.069	12859.443
535.197	12838.287
535.325	12871.261
535.453	12880.991
535.581	12986.930
535.709	12913.626
535.838	12948.052
535.966	12953.626
536.094	12998.835
536.222	13008.261
536.350	12969.600
536.478	12991.139
536.606	13049.739
536.734	13000.409
536.863	12996.400
536.991	13115.861
537.119	13101.035
537.247	13066.530
537.375	13232.609
537.503	13101.843
537.631	13082.417
537.759	13143.461
537.888	13093.391
538.016	13322.078
538.144	13189.330
538.272	13192.470
538.400	13253.304
538.528	13176.052
538.656	13222.522
538.784	13268.539
538.913	13353.139
539.041	13341.330
539.169	13316.357
539.297	13325.452
539.425	13432.974
539.553	13384.504
539.681	13494.209
539.809	13475.174
539.938	13445.078
540.066	13438.730
540.194	13518.617
540.322	13636.365
540.450	13604.270
540.578	13592.122
540.706	13593.783
540.834	13667.139
540.963	13717.930
541.091	13617.035
541.219	13603.435
541.347	13770.009
541.475	13704.026
541.603	13724.209
541.731	13679.913
541.859	13707.757
541.988	13736.287
542.116	13897.774
542.244	13762.765
542.372	13914.470
542.500	13733.609
542.628	13813.522
542.756	13740.078
542.884	13753.461
543.013	13761.452
543.141	13772.574
543.269	13768.026
543.397	13713.165
543.525	13721.730
543.653	13780.670
543.781	13680.583
543.909	13619.313
544.038	13728.243
544.166	13717.983
544.294	13813.852
544.422	13600.148
544.550	13675.478
544.678	13667.904
544.806	13609.557
544.934	13569.209
545.063	13656.391
545.191	13732.174
545.319	13593.096
545.447	13529.478
545.575	13531.461
545.703	13592.539
545.831	13571.017
545.959	13556.922
546.088	13575.504
546.216	13505.443
546.344	13560.504
546.472	13732.913
546.600	13601.365
546.728	13574.087
546.856	13597.070
546.984	13605.687
547.113	13697.678
547.241	13644.070
547.369	13742.478
547.497	13743.035
547.625	13742.696
547.753	13763.122
547.881	13757.461
548.009	13782.070
548.138	13857.148
548.266	13834.530
548.394	13933.183
548.522	13875.861
548.650	14085.974
548.778	14007.417
548.906	14012.913
549.034	14106.583
549.163	14018.000
549.291	14033.522
549.419	14081.113
549.547	14277.165
549.675	14154.243
549.803	14135.017
549.931	14149.539
550.059	14163.800
550.188	14248.557
550.316	14268.870
550.444	14299.357
550.572	14315.087
550.700	14322.948
550.828	14375.678
550.956	14319.261
551.084	14449.765
551.213	14390.426
551.341	14473.139
551.469	14462.730
551.597	14539.417
551.725	14556.043
551.853	14514.530
551.981	14543.435
552.109	14573.330
552.238	14616.443
552.366	14556.330
552.494	14597.365
552.622	14587.930
552.750	14647.974
552.878	14601.817
553.006	14686.096
553.134	14656.217
553.263	14590.287
553.391	14607.383
553.519	14785.530
553.647	14617.583
553.775	14628.313
553.903	14720.739
554.031	14653.800
554.159	14608.165
554.288	14673.157
554.416	14628.757
554.544	14654.713
554.672	14621.113
554.800	14579.296
554.928	14585.209
555.056	14559.139
555.184	14560.348
555.313	14558.017
555.441	14531.748
555.569	14541.930
555.697	14593.391
555.825	14523.878
555.953	14528.904
556.081	14492.713
556.209	14482.948
556.338	14533.513
556.466	14652.452
556.594	14498.852
556.722	14547.522
556.850	14547.896
556.978	14407.409
557.106	14462.852
557.234	14478.417
557.363	14509.957
557.491	14459.635
557.619	14492.870
557.747	14497.957
557.875	14462.861
558.003	14451.922
558.131	14455.574
558.259	14507.087
558.388	14413.357
558.516	14453.278
558.644	14441.087
558.772	14540.087
558.900	14424.435
559.028	14460.730
559.156	14464.348
559.284	14448.939
559.413	14475.252
559.541	14459.826
559.669	14526.791
559.797	14532.922
559.925	14503.104
560.053	14571.922
560.181	14455.470
560.309	14557.948
560.438	14544.452
560.566	14531.165
560.694	14443.939
560.822	14690.443
560.950	14551.930
561.078	14544.026
561.206	14695.426
561.334	14542.757
561.463	14549.209
561.591	14663.374
561.719	14537.870
561.847	14618.226
561.975	14586.078
562.103	14577.783
562.231	14606.417
562.359	14552.878
562.488	14626.896
562.616	14603.461
562.744	14661.530
562.872	14646.461
563.000	14605.243
563.128	14640.217
563.256	14630.470
563.384	14795.043
563.513	14617.557
563.641	14692.374
563.769	14733.026
563.897	14664.035
564.025	14686.939
564.153	14678.704
564.281	14792.922
564.409	14685.061
564.538	14688.557
564.666	14763.348
564.794	14810.835
564.922	14787.922
565.050	14836.983
565.178	14770.157
565.306	14813.261
565.434	14864.635
565.563	14947.922
565.691	14864.574
565.819	15022.035
565.947	14816.200
566.075	14856.513
566.203	14873.243
566.331	14835.278
566.459	14883.696
566.588	14888.409
566.716	14913.374
566.844	14904.496
566.972	14927.704
567.100	15020.565
567.228	15010.817
567.356	15068.670
567.484	15017.252
567.613	15051.487
567.741	15026.183
567.869	15025.070
567.997	15041.400
568.125	15109.861
568.253	15147.913
568.381	15076.470
568.509	15095.583
568.638	15109.678
568.766	15200.287
568.894	15190.000
569.022	15090.417
569.150	15212.052
569.278	15104.722
569.406	15238.200
569.534	15215.000
569.663	15172.548
569.791	15143.643
569.919	15193.687
570.047	15340.704
570.175	15172.304
570.303	15134.330
570.431	15115.887
570.559	15198.043
570.688	15290.774
570.816	15169.113
570.944	15145.783
571.072	15114.678
571.200	15046.426
571.328	15101.652
571.456	15092.330
571.584	15053.339
571.713	15022.826
571.841	15098.339
571.969	15209.852
572.097	15154.383
572.225	14965.870
572.353	14992.191
572.481	14916.670
572.609	14957.426
572.738	14905.713
572.866	14886.478
572.994	14892.487
573.122	14846.426
573.250	14892.661
573.378	14822.087
573.506	14850.730
573.634	14864.087
573.763	14773.330
573.891	14772.670
574.019	14827.574
574.147	14750.539
574.275	14735.617
574.403	14876.722
574.531	14716.896
574.659	14728.061
574.788	14714.104
574.916	14851.461
575.044	14729.922
575.172	14726.957
575.300	14723.791
575.428	14706.791
575.556	14694.391
575.684	14743.409
575.813	14718.783
575.941	14677.835
576.069	14700.313
576.197	14744.252
576.325	14732.130
576.453	14735.765
576.581	14706.670
576.709	14742.757
576.838	14773.783
576.966	14884.391
577.094	14953.104
577.222	14886.896
577.350	14857.748
577.478	14941.765
577.606	14917.591
577.734	14937.226
577.863	14959.635
577.991	15021.817
578.119	15077.330
578.247	15024.087
578.375	15128.800
578.503	15108.270
578.631	15096.322
578.759	15182.730
578.888	15313.957
579.016	15146.574
579.144	15215.635
579.272	15203.530
579.400	15286.513
579.528	15322.826
579.656	15411.765
579.784	15323.557
579.913	15354.643
580.041	15581.122
580.169	15405.583
580.297	15516.696
580.425	15519.878
580.553	15553.052
580.681	15574.122
580.809	15577.104
580.938	15551.548
581.066	15688.061
581.194	15649.217
581.322	15671.817
581.450	15767.600
581.578	15734.235
581.706	15760.009
581.834	15802.348
581.963	15791.878
582.091	15794.748
582.219	15845.104
582.347	15882.087
582.475	15867.200
582.603	15873.139
582.731	15977.609
582.859	15909.583
582.988	15933.130
583.116	15992.696
583.244	15962.226
583.372	15983.730
583.500	15936.148
583.628	16043.383
583.756	16004.296
583.884	15972.852
584.013	16080.339
584.141	15991.243
584.269	16041.678
584.397	16077.730
584.525	16018.548
584.653	16065.678
584.781	16077.217
584.909	16043.148
585.038	16063.113
585.166	16057.270
585.294	16119.617
585.422	16078.530
585.550	16100.157
585.678	16029.487
585.806	16117.226
585.934	16037.939
586.063	16086.270
586.191	16048.130
586.319	16094.913
586.447	16058.591
586.575	16051.652
586.703	16115.748
586.831	16029.835
586.959	16144.661
587.088	16085.930
587.216	16079.591
587.344	16091.261
587.472	16260.817
587.600	16049.313
587.728	16084.835
587.856	16057.130
587.984	16068.791
588.113	16112.600
588.241	16046.652
588.369	16091.061
588.497	16079.122
588.625	16055.643
588.753	16218.235
588.881	16097.452
589.009	16091.478
589.138	16125.374
589.266	16102.687
589.394	16123.243
589.522	16126.348
589.650	16222.922
589.778	16168.843
589.906	16218.600
590.034	16121.878
590.163	16157.965
590.291	16243.113
590.419	16177.939
590.547	16244.383
590.675	16205.443
590.803	16197.435
590.931	16153.417
591.059	16136.200
591.188	16067.243
591.316	15981.904
591.444	15991.887
591.572	16022.000
591.700	15916.365
591.828	15894.174
591.956	15864.165
592.084	15812.043
592.213	15825.104
592.341	15779.974
592.469	15799.357
592.597	15816.365
592.725	15744.661
592.853	15750.496
592.981	15821.000
593.109	15814.565
593.238	15728.991
593.366	15739.626
593.494	15749.591
593.622	15830.522
593.750	15828.487
593.878	15926.513
594.006	15878.617
594.134	15937.209
594.263	15995.287
594.391	15910.739
594.519	15994.417
594.647	16031.930
594.775	16015.443
594.903	16089.426
595.031	16132.365
595.159	16189.617
595.288	16213.452
595.416	16199.991
595.544	16215.113
595.672	16185.113
595.800	16289.174
595.928	16222.270
596.056	16258.087
596.184	16227.809
596.313	16459.991
596.441	16281.887
596.569	16310.939
596.697	16236.443
596.825	16227.904
596.953	16280.139
597.081	16323.687
597.209	16324.835
597.338	16375.304
597.466	16403.670
597.594	16382.722
597.722	16533.026
597.850	16448.078
597.978	16531.809
598.106	16609.835
598.234	16642.583
598.363	16567.487
598.491	16738.409
598.619	16655.165
598.747	16702.739
598.875	16829.765
599.003	16861.313
599.131	16932.591
599.259	16892.713
599.388	16860.296
599.516	17006.183
599.644	17044.226
599.772	17144.852
599.900	17092.435
600.028	17097.600
600.156	17208.957
600.284	17137.270
600.413	17172.878
600.541	17290.774
600.669	17338.417
600.797	17281.130
600.925	17359.339
601.053	17421.278
601.181	17449.017
601.309	17421.696
601.438	17443.843
601.566	17448.800
601.694	17546.661
601.822	17733.226
601.950	17554.470
602.078	17582.435
602.206	17688.391
602.334	17620.922
602.463	17636.217
602.591	17712.322
602.719	17647.678
602.847	17874.070
602.975	17664.487
603.103	17709.991
603.231	17767.296
603.359	17746.096
603.488	17766.443
603.616	17744.687
603.744	17741.791
603.872	17755.191
604.000	17767.748
604.128	17767.209
604.256	17766.139
604.384	17838.400
604.513	17904.504
604.641	17811.035
604.769	17929.791
604.897	17779.087
605.025	17730.922
605.153	17794.730
605.281	17872.557
605.409	17809.296
605.538	17794.904
605.666	17806.896
605.794	17801.809
605.922	17773.043
606.050	17755.374
606.178	17780.617
606.306	17774.896
606.434	17801.035
606.563	17806.809
606.691	17810.722
606.819	17796.217
606.947	17717.000
607.075	17688.322
607.203	17687.817
607.331	17709.226
607.459	17704.357
607.588	17695.235
607.716	17747.365
607.844	17730.948
607.972	17715.174
608.100	17669.557
608.228	17655.070
608.356	17651.148
608.484	17640.157
608.613	17657.243
608.741	17605.200
608.869	17624.461
608.997	17660.217
609.125	17660.817
609.253	17616.852
609.381	17602.730
609.509	17615.591
609.638	17625.157
609.766	17605.504
609.894	17635.217
610.022	17526.087
610.150	17665.096
610.278	17570.870
610.406	17544.243
610.534	17559.183
610.663	17538.504
610.791	17676.678
610.919	17541.722
611.047	17603.313
611.175	17524.522
611.303	17563.687
611.431	17556.409
611.559	17635.748
611.688	17562.304
611.816	17541.530
611.944	17561.583
612.072	17579.965
612.200	17649.652
612.328	17660.826
612.456	17601.817
612.584	17829.357
612.713	17607.357
612.841	17682.861
612.969	17617.287
613.097	17661.626
613.225	17709.922
613.353	17719.522
613.481	17692.270
613.609	17736.157
613.738	17677.609
613.866	17833.965
613.994	17795.374
614.122	17810.304
614.250	17838.235
614.378	17829.400
614.506	17885.904
614.634	17908.504
614.763	17945.652
614.891	17955.400
615.019	18013.661
615.147	18068.817
615.275	18033.522
615.403	18074.391
615.531	18144.609
615.659	18168.209
615.788	18179.391
615.916	18275.930
616.044	18209.957
616.172	18378.426
616.300	18207.000
616.428	18350.070
616.556	18299.652
616.684	18287.687
616.813	18322.122
616.941	18375.270
617.069	18327.843
617.197	18584.887
617.325	18493.400
617.453	18488.052
617.581	18555.322
617.709	18494.365
617.838	18559.965
617.966	18614.870
618.094	18591.287
618.222	18624.591
618.350	18734.017
618.478	18663.435
618.606	18808.470
618.734	18720.696
618.863	18783.922
618.991	18709.113
619.119	18807.461
619.247	18748.539
619.375	18756.278
619.503	18840.583
619.631	18953.070
619.759	18831.965
619.888	18811.009
620.016	18852.435
620.144	18885.757
620.272	18828.626
620.400	18908.191
620.528	18901.000
620.656	19009.061
620.784	18885.452
620.913	18898.070
621.041	18926.722
621.169	18952.304
621.297	18962.026
621.425	18943.000
621.553	18947.374
621.681	19061.652
621.809	19014.609
621.938	19014.696
622.066	19075.017
622.194	19079.861
622.322	19094.548
622.450	19091.887
622.578	19120.852
622.706	19107.991
622.834	19134.565
622.963	19166.087
623.091	19162.078
623.219	19150.643
623.347	19266.774
623.475	19189.426
623.603	19179.435
623.731	19164.626
623.859	19183.826
623.988	19196.626
624.116	19200.287
624.244	19251.930
624.372	19210.722
624.500	19225.035
624.628	19199.939
624.756	19277.730
624.884	19361.861
625.013	19451.130
625.141	19253.339
625.269	19239.583
625.397	19330.226
625.525	19404.843
625.653	19248.183
625.781	19402.800
625.909	19276.487
626.038	19303.061
626.166	19302.591
626.294	19229.226
626.422	19335.757
626.550	19319.957
626.678	19336.261
626.806	19254.104
626.934	19287.252
627.063	19243.487
627.191	19228.704
627.319	19232.835
627.447	19188.626
627.575	19179.400
627.703	19170.339
627.831	19173.191
627.959	19161.722
628.088	19225.365
628.216	19239.157
628.344	19095.757
