spectrometer_90_30nm_hybrid_at_650.00nm_cut_at_1184.50Y_01.dat
02.05.2022
11:46:33
cut middle at Y: 1184.50
top cursor: 1210 down cursor: 1159 mean of: 51 lines , 2560 datapoints
wavelength(nm)	intensity[arb. units]
485.997	5784.569
486.125	5241.314
486.253	5123.588
486.381	5087.765
486.510	5155.784
486.638	5250.863
486.766	5198.412
486.894	5235.020
487.022	5254.176
487.150	5254.098
487.278	5288.157
487.406	5253.627
487.535	5312.314
487.663	5386.157
487.791	5374.765
487.919	5380.765
488.047	5406.412
488.175	5434.843
488.303	5476.765
488.431	5492.588
488.560	5479.235
488.688	5546.941
488.816	5538.294
488.944	5580.314
489.072	5594.431
489.200	5605.569
489.328	5612.216
489.456	5678.020
489.585	5669.000
489.713	5646.196
489.841	5631.922
489.969	5631.804
490.097	5700.137
490.225	5660.588
490.353	5739.059
490.481	5695.157
490.610	5708.608
490.738	5705.980
490.866	5775.216
490.994	5729.588
491.122	5712.412
491.250	5731.804
491.378	5723.686
491.506	5793.706
491.635	5770.725
491.763	5742.961
491.891	5738.980
492.019	5799.824
492.147	5756.765
492.275	5743.686
492.403	5779.667
492.531	5893.922
492.660	5811.294
492.788	5827.745
492.916	5872.020
493.044	5797.275
493.172	5863.902
493.300	5850.961
493.428	5883.196
493.556	5940.863
493.685	5941.569
493.813	5949.627
493.941	5990.490
494.069	6000.039
494.197	6027.706
494.325	6061.471
494.453	6218.314
494.581	6118.314
494.710	6172.902
494.838	6193.020
494.966	6262.314
495.094	6212.941
495.222	6288.294
495.350	6264.922
495.478	6310.020
495.606	6335.922
495.735	6378.608
495.863	6355.157
495.991	6389.471
496.119	6457.059
496.247	6511.588
496.375	6405.471
496.503	6467.941
496.631	6483.078
496.760	6450.059
496.888	6444.706
497.016	6497.902
497.144	6497.314
497.272	6509.980
497.400	6526.588
497.528	6498.294
497.656	6474.647
497.785	6449.980
497.913	6456.353
498.041	6450.353
498.169	6439.157
498.297	6427.373
498.425	6580.137
498.553	6460.725
498.681	6466.451
498.810	6493.902
498.938	6457.510
499.066	6476.843
499.194	6533.863
499.322	6520.431
499.450	6521.510
499.578	6499.333
499.706	6550.922
499.835	6527.922
499.963	6512.353
500.091	6564.549
500.219	6570.941
500.347	6596.333
500.475	6598.000
500.603	6597.353
500.731	6627.275
500.860	6630.412
500.988	6684.157
501.116	6695.961
501.244	6690.235
501.372	6774.020
501.500	6710.882
501.628	6778.647
501.756	6803.882
501.885	6876.098
502.013	6802.569
502.141	6902.275
502.269	6855.353
502.397	7009.196
502.525	6928.020
502.653	7040.196
502.781	7013.882
502.910	7018.392
503.038	7064.725
503.166	7053.431
503.294	7063.725
503.422	7057.882
503.550	7052.294
503.678	7088.451
503.806	7108.941
503.935	7092.941
504.063	7113.235
504.191	7111.902
504.319	7080.451
504.447	7121.510
504.575	7120.549
504.703	7134.353
504.831	7126.961
504.960	7088.039
505.088	7115.627
505.216	7140.176
505.344	7247.020
505.472	7158.078
505.600	7131.961
505.728	7240.176
505.856	7186.294
505.985	7220.902
506.113	7217.510
506.241	7265.353
506.369	7222.490
506.497	7229.490
506.625	7289.608
506.753	7249.804
506.881	7297.627
507.010	7321.510
507.138	7278.608
507.266	7382.157
507.394	7355.196
507.522	7425.569
507.650	7407.647
507.778	7393.882
507.906	7428.608
508.035	7423.706
508.163	7496.824
508.291	7480.255
508.419	7581.549
508.547	7571.275
508.675	7613.843
508.803	7551.529
508.931	7612.059
509.060	7647.294
509.188	7616.824
509.316	7678.863
509.444	7669.882
509.572	7803.059
509.700	7681.941
509.828	7763.196
509.956	7714.667
510.085	7740.118
510.213	7755.255
510.341	7730.373
510.469	7750.373
510.597	7788.490
510.725	7756.137
510.853	7833.314
510.981	7861.961
511.110	7827.275
511.238	7798.863
511.366	7844.569
511.494	7796.843
511.622	7870.000
511.750	7877.882
511.878	7917.059
512.006	7830.980
512.135	7892.098
512.263	7903.490
512.391	7917.529
512.519	7929.569
512.647	7901.118
512.775	7936.275
512.903	7944.118
513.031	7971.471
513.160	7962.098
513.288	8031.412
513.416	7943.216
513.544	7952.294
513.672	7982.373
513.800	7968.529
513.928	7936.471
514.056	8000.333
514.185	7945.039
514.313	7932.569
514.441	8044.255
514.569	7978.353
514.697	7979.314
514.825	7949.235
514.953	7966.961
515.081	7919.157
515.210	7974.784
515.338	8047.647
515.466	7940.471
515.594	7927.275
515.722	7910.510
515.850	7964.020
515.978	7851.784
516.106	7935.451
516.235	7924.725
516.363	7941.471
516.491	7909.000
516.619	7920.392
516.747	8023.059
516.875	7973.667
517.003	7964.451
517.131	8021.843
517.260	7940.471
517.388	7992.784
517.516	8003.078
517.644	8022.216
517.772	8099.020
517.900	8076.510
518.028	8116.569
518.156	8158.804
518.284	8140.333
518.413	8184.725
518.541	8205.098
518.669	8177.784
518.797	8230.922
518.925	8260.059
519.053	8274.529
519.181	8294.882
519.309	8355.647
519.438	8366.824
519.566	8381.667
519.694	8395.569
519.822	8457.824
519.950	8449.333
520.078	8483.863
520.206	8511.471
520.334	8506.235
520.463	8497.627
520.591	8563.863
520.719	8546.706
520.847	8591.471
520.975	8545.020
521.103	8668.392
521.231	8572.294
521.359	8720.373
521.488	8588.882
521.616	8649.373
521.744	8573.824
521.872	8597.549
522.000	8537.216
522.128	8526.451
522.256	8518.373
522.384	8492.863
522.513	8519.686
522.641	8477.863
522.769	8526.196
522.897	8560.549
523.025	8504.451
523.153	8442.824
523.281	8496.078
523.409	8435.275
523.538	8453.549
523.666	8356.647
523.794	8467.157
523.922	8422.765
524.050	8453.941
524.178	8399.353
524.306	8405.667
524.434	8484.020
524.563	8494.157
524.691	8622.157
524.819	8483.941
524.947	8507.824
525.075	8543.961
525.203	8534.667
525.331	8578.824
525.459	8645.922
525.588	8618.902
525.716	8675.039
525.844	8687.000
525.972	8702.098
526.100	8717.275
526.228	8788.314
526.356	8778.333
526.484	8789.863
526.613	8810.765
526.741	8961.882
526.869	8893.216
526.997	8943.353
527.125	8980.216
527.253	8970.588
527.381	9065.039
527.509	9020.706
527.638	9095.882
527.766	9195.588
527.894	9185.275
528.022	9240.020
528.150	9175.490
528.278	9296.784
528.406	9270.431
528.534	9283.216
528.663	9322.569
528.791	9433.765
528.919	9379.824
529.047	9534.843
529.175	9353.098
529.303	9395.843
529.431	9371.000
529.559	9462.098
529.688	9395.000
529.816	9419.314
529.944	9521.588
530.072	9488.471
530.200	9387.647
530.328	9436.431
530.456	9460.039
530.584	9481.118
530.713	9472.137
530.841	9508.980
530.969	9454.216
531.097	9467.980
531.225	9465.059
531.353	9535.961
531.481	9519.118
531.609	9627.647
531.738	9463.608
531.866	9612.235
531.994	9561.902
532.122	9654.353
532.250	9528.745
532.378	9489.961
532.506	9487.667
532.634	9464.902
532.763	9423.745
532.891	9465.843
533.019	9483.118
533.147	9451.941
533.275	9453.196
533.403	9493.255
533.531	9493.569
533.659	9483.706
533.788	9529.980
533.916	9484.510
534.044	9477.294
534.172	9546.745
534.300	9506.745
534.428	9447.098
534.556	9664.745
534.684	9522.412
534.813	9502.392
534.941	9486.490
535.069	9462.569
535.197	9462.588
535.325	9461.569
535.453	9523.510
535.581	9608.784
535.709	9483.392
535.838	9562.588
535.966	9536.745
536.094	9536.902
536.222	9587.078
536.350	9560.529
536.478	9566.608
536.606	9621.824
536.734	9583.922
536.863	9560.373
536.991	9613.863
537.119	9659.020
537.247	9644.255
537.375	9761.471
537.503	9611.118
537.631	9622.804
537.759	9619.980
537.888	9592.353
538.016	9788.196
538.144	9716.627
538.272	9684.235
538.400	9725.373
538.528	9691.314
538.656	9798.490
538.784	9721.137
538.913	9830.706
539.041	9772.510
539.169	9788.196
539.297	9830.706
539.425	9879.686
539.553	9853.039
539.681	9952.471
539.809	9947.980
539.938	9943.020
540.066	9955.039
540.194	10044.804
540.322	10102.510
540.450	10099.196
540.578	10055.314
540.706	10120.706
540.834	10129.078
540.963	10252.569
541.091	10214.000
541.219	10174.216
541.347	10284.902
541.475	10261.529
541.603	10288.510
541.731	10299.118
541.859	10279.725
541.988	10314.725
542.116	10500.667
542.244	10355.824
542.372	10540.745
542.500	10375.314
542.628	10466.490
542.756	10367.333
542.884	10414.529
543.013	10414.627
543.141	10488.098
543.269	10486.529
543.397	10366.922
543.525	10451.431
543.653	10516.137
543.781	10411.157
543.909	10421.961
544.038	10511.627
544.166	10483.863
544.294	10556.922
544.422	10404.373
544.550	10438.373
544.678	10482.824
544.806	10383.843
544.934	10393.980
545.063	10401.647
545.191	10563.078
545.319	10462.647
545.447	10332.647
545.575	10306.451
545.703	10426.569
545.831	10385.255
545.959	10386.745
546.088	10349.647
546.216	10308.627
546.344	10353.804
546.472	10513.941
546.600	10346.647
546.728	10315.706
546.856	10335.627
546.984	10349.922
547.113	10478.216
547.241	10484.255
547.369	10468.176
547.497	10477.706
547.625	10478.020
547.753	10449.118
547.881	10381.373
548.009	10379.137
548.138	10406.137
548.266	10342.353
548.394	10388.471
548.522	10316.471
548.650	10428.647
548.778	10357.980
548.906	10271.000
549.034	10370.706
549.163	10243.098
549.291	10258.431
549.419	10305.333
549.547	10521.118
549.675	10456.216
549.803	10472.824
549.931	10491.216
550.059	10551.824
550.188	10679.216
550.316	10721.392
550.444	10780.098
550.572	10832.078
550.700	10903.882
550.828	10947.510
550.956	10965.941
551.084	11076.784
551.213	11019.275
551.341	11072.941
551.469	11086.608
551.597	11158.078
551.725	11192.980
551.853	11169.941
551.981	11261.922
552.109	11210.490
552.238	11265.725
552.366	11238.255
552.494	11209.863
552.622	11178.569
552.750	11234.941
552.878	11284.118
553.006	11328.451
553.134	11204.294
553.263	11295.235
553.391	11327.020
553.519	11470.471
553.647	11366.863
553.775	11333.000
553.903	11451.196
554.031	11400.824
554.159	11350.078
554.288	11464.824
554.416	11449.000
554.544	11479.961
554.672	11468.686
554.800	11441.333
554.928	11397.098
555.056	11402.431
555.184	11448.804
555.313	11465.235
555.441	11404.137
555.569	11444.804
555.697	11504.706
555.825	11462.980
555.953	11483.980
556.081	11421.765
556.209	11423.235
556.338	11521.373
556.466	11644.451
556.594	11472.255
556.722	11595.902
556.850	11637.824
556.978	11476.412
557.106	11509.412
557.234	11553.020
557.363	11587.647
557.491	11557.569
557.619	11565.431
557.747	11631.255
557.875	11596.235
558.003	11652.529
558.131	11638.235
558.259	11679.725
558.388	11624.941
558.516	11687.373
558.644	11693.098
558.772	11777.314
558.900	11693.373
559.028	11718.235
559.156	11690.078
559.284	11746.941
559.413	11776.216
559.541	11796.098
559.669	11805.824
559.797	11867.902
559.925	11813.137
560.053	11959.745
560.181	11882.098
560.309	11903.157
560.438	11961.471
560.566	11949.863
560.694	11902.686
560.822	12076.392
560.950	11943.098
561.078	11987.627
561.206	12098.176
561.334	11986.863
561.463	11960.137
561.591	12125.353
561.719	11998.510
561.847	12087.824
561.975	11979.451
562.103	12040.235
562.231	12077.549
562.359	11956.765
562.488	12104.922
562.616	12091.706
562.744	12077.627
562.872	12087.451
563.000	12010.686
563.128	12022.000
563.256	12046.824
563.384	12186.275
563.513	12035.804
563.641	12070.373
563.769	12113.196
563.897	12057.765
564.025	12088.039
564.153	12058.431
564.281	12176.118
564.409	12084.373
564.538	12072.196
564.666	12143.471
564.794	12170.647
564.922	12118.137
565.050	12239.961
565.178	12110.353
565.306	12201.098
565.434	12252.098
565.563	12422.353
565.691	12300.588
565.819	12511.882
565.947	12324.784
566.075	12413.882
566.203	12420.451
566.331	12414.667
566.459	13251.216
566.588	12464.314
566.716	12523.882
566.844	12526.098
566.972	12621.725
567.100	12658.824
567.228	12737.392
567.356	12807.039
567.484	12736.353
567.613	12830.471
567.741	12835.843
567.869	12847.745
567.997	12919.804
568.125	12977.000
568.253	13047.902
568.381	13026.784
568.509	13071.882
568.638	13051.059
568.766	13137.412
568.894	13171.902
569.022	13188.941
569.150	13246.549
569.278	13186.059
569.406	13307.039
569.534	13297.412
569.663	13301.294
569.791	13339.392
569.919	13426.725
570.047	13508.059
570.175	13411.686
570.303	13384.490
570.431	13418.275
570.559	13505.980
570.688	13586.039
570.816	13465.961
570.944	13521.608
571.072	13515.627
571.200	13447.647
571.328	13541.431
571.456	13559.216
571.584	13546.804
571.713	13481.471
571.841	13556.941
571.969	13697.157
572.097	13662.922
572.225	13514.627
572.353	13504.882
572.481	13429.588
572.609	13523.059
572.738	13462.020
572.866	13406.431
572.994	13438.627
573.122	13356.176
573.250	13437.745
573.378	13339.373
573.506	13367.353
573.634	13433.882
573.763	13310.118
573.891	13358.647
574.019	13389.784
574.147	13303.549
574.275	13311.333
574.403	13344.902
574.531	13316.353
574.659	13289.549
574.788	13271.863
574.916	13371.157
575.044	13284.529
575.172	13180.725
575.300	13194.294
575.428	13158.373
575.556	13208.294
575.684	13212.529
575.813	13175.333
575.941	13148.922
576.069	13127.922
576.197	13154.824
576.325	13117.039
576.453	13069.000
576.581	13103.863
576.709	13043.412
576.838	13062.549
576.966	13153.098
577.094	13273.294
577.222	13136.529
577.350	13017.235
577.478	13190.667
577.606	13144.863
577.734	13196.020
577.863	13237.118
577.991	13272.000
578.119	13352.608
578.247	13298.059
578.375	13351.059
578.503	13359.275
578.631	13362.333
578.759	13425.765
578.888	13572.647
579.016	13419.725
579.144	13443.294
579.272	13458.549
579.400	13482.020
579.528	13579.941
579.656	13599.294
579.784	13555.765
579.913	13582.333
580.041	13783.392
580.169	13653.000
580.297	13719.294
580.425	13745.373
580.553	13752.804
580.681	13800.059
580.809	13774.725
580.938	13794.510
581.066	13936.431
581.194	13857.667
581.322	13849.275
581.450	13933.392
581.578	13930.510
581.706	13985.020
581.834	14031.627
581.963	14004.647
582.091	14071.667
582.219	14101.314
582.347	14123.059
582.475	14137.608
582.603	14177.725
582.731	14277.725
582.859	14207.941
582.988	14195.098
583.116	14262.431
583.244	14291.412
583.372	14252.804
583.500	14256.608
583.628	14390.765
583.756	14352.627
583.884	14368.608
584.013	14440.451
584.141	14360.216
584.269	14419.392
584.397	14502.373
584.525	14401.275
584.653	14505.392
584.781	14498.039
584.909	14522.196
585.038	14547.608
585.166	14575.039
585.294	14587.078
585.422	14566.745
585.550	14531.412
585.678	14547.961
585.806	14621.941
585.934	14605.549
586.063	14583.569
586.191	14609.784
586.319	14696.549
586.447	14640.745
586.575	14694.961
586.703	14754.275
586.831	14668.706
586.959	14744.529
587.088	14676.157
587.216	14691.529
587.344	14722.098
587.472	14850.314
587.600	14668.294
587.728	14664.000
587.856	14661.059
587.984	14642.667
588.113	14801.627
588.241	14761.961
588.369	14740.490
588.497	14777.196
588.625	14787.137
588.753	14905.627
588.881	14791.824
589.009	14808.549
589.138	14818.412
589.266	14809.941
589.394	14835.647
589.522	14794.333
589.650	14947.490
589.778	14910.000
589.906	15006.431
590.034	14899.373
590.163	14888.333
590.291	15014.353
590.419	14924.686
590.547	15063.333
590.675	15052.725
590.803	15090.961
590.931	15016.725
591.059	15065.765
591.188	15044.373
591.316	15111.039
591.444	15096.647
591.572	15146.529
591.700	15164.490
591.828	15137.529
591.956	15187.314
592.084	15212.725
592.213	15217.725
592.341	15207.647
592.469	15281.588
592.597	15243.255
592.725	15158.294
592.853	15221.412
592.981	15234.314
593.109	15274.294
593.238	15192.137
593.366	15175.412
593.494	15137.608
593.622	15149.510
593.750	15103.922
593.878	15228.627
594.006	15156.157
594.134	15132.588
594.263	15148.706
594.391	15118.392
594.519	15148.765
594.647	15219.843
594.775	15144.235
594.903	15155.608
595.031	15189.157
595.159	15175.196
595.288	15116.745
595.416	15158.333
595.544	15158.980
595.672	15062.000
595.800	15170.922
595.928	15078.941
596.056	15105.902
596.184	15054.863
596.313	15203.882
596.441	15133.176
596.569	15113.784
596.697	15038.412
596.825	14970.824
596.953	15029.706
597.081	15026.333
597.209	15012.980
597.338	15017.941
597.466	14995.980
597.594	14975.490
597.722	15092.725
597.850	15006.392
597.978	15124.098
598.106	15135.706
598.234	15110.255
598.363	15095.922
598.491	15261.196
598.619	15125.529
598.747	15123.745
598.875	15283.941
599.003	15225.765
599.131	15332.451
599.259	15308.431
599.388	15293.510
599.516	15418.137
599.644	15463.686
599.772	15616.784
599.900	15488.235
600.028	15472.627
600.156	15573.431
600.284	15552.941
600.413	15585.804
600.541	15684.490
600.669	15736.941
600.797	15660.392
600.925	15737.020
601.053	15786.725
601.181	15834.549
601.309	15786.431
601.438	15728.980
601.566	15807.667
601.694	15850.490
601.822	16037.216
601.950	15880.804
602.078	15921.882
602.206	16005.078
602.334	16005.686
602.463	16018.412
602.591	16078.627
602.719	16087.118
602.847	16299.608
602.975	16108.353
603.103	16139.078
603.231	16220.667
603.359	16200.314
603.488	16205.235
603.616	16206.294
603.744	16252.118
603.872	16298.608
604.000	16248.980
604.128	16262.451
604.256	16288.863
604.384	16340.275
604.513	16423.804
604.641	16385.725
604.769	16401.608
604.897	16363.235
605.025	16306.471
605.153	16283.216
605.281	16411.686
605.409	16333.176
605.538	16293.196
605.666	16337.078
605.794	16333.373
605.922	16346.569
606.050	16323.255
606.178	16402.745
606.306	16360.647
606.434	16387.843
606.563	16360.490
606.691	16389.471
606.819	16422.451
606.947	16389.686
607.075	16356.294
607.203	16356.196
607.331	16376.039
607.459	16367.882
607.588	16393.078
607.716	16403.647
607.844	16377.941
607.972	16431.843
608.100	16314.608
608.228	16296.196
608.356	16356.137
608.484	16360.392
608.613	16413.510
608.741	16330.706
608.869	16350.941
608.997	16380.451
609.125	16382.745
609.253	16357.275
609.381	16331.196
609.509	16339.941
609.638	16326.588
609.766	16282.863
609.894	16309.647
610.022	16229.451
610.150	16362.569
610.278	16309.902
610.406	16248.451
610.534	16289.706
610.663	16275.490
610.791	16423.745
610.919	16283.020
611.047	16311.333
611.175	16347.686
611.303	16310.157
611.431	16322.529
611.559	16378.196
611.688	16342.078
611.816	16371.569
611.944	16310.745
612.072	16332.020
612.200	16423.706
612.328	16490.902
612.456	16406.843
612.584	16553.137
612.713	16444.490
612.841	16444.039
612.969	16426.549
613.097	16453.431
613.225	16410.294
613.353	16465.078
613.481	16454.961
613.609	16497.961
613.738	16505.922
613.866	16591.765
613.994	16559.686
614.122	16598.667
614.250	16626.000
614.378	16608.725
614.506	16599.431
614.634	16655.569
614.763	16679.196
614.891	16661.980
615.019	16703.490
615.147	16735.961
615.275	16693.137
615.403	16740.471
615.531	16778.333
615.659	16779.882
615.788	16816.059
615.916	16935.882
616.044	16841.137
616.172	17054.176
616.300	16893.549
616.428	17022.255
616.556	16934.529
616.684	16997.784
616.813	17014.333
616.941	17049.882
617.069	17017.588
617.197	17309.843
617.325	17162.196
617.453	17090.980
617.581	17166.451
617.709	17139.863
617.838	17120.804
617.966	17151.588
618.094	17157.647
618.222	17262.882
618.350	17255.765
618.478	17175.863
618.606	17306.843
618.734	17233.765
618.863	17256.098
618.991	17226.098
619.119	17297.902
619.247	17218.137
619.375	17207.392
619.503	17337.039
619.631	17392.118
619.759	17265.431
619.888	17313.569
620.016	17341.980
620.144	17402.863
620.272	17337.784
620.400	17356.882
620.528	17342.510
620.656	17494.412
620.784	17395.098
620.913	17425.451
621.041	17455.549
621.169	17473.902
621.297	17414.667
621.425	17479.745
621.553	17473.373
621.681	17556.608
621.809	17533.137
621.938	17504.333
622.066	17634.627
622.194	17565.745
622.322	17587.667
622.450	17599.294
622.578	17616.373
622.706	17698.549
622.834	17737.294
622.963	17749.824
623.091	17754.569
623.219	17732.510
623.347	17819.196
623.475	17772.922
623.603	17820.431
623.731	17822.412
623.859	17863.059
623.988	17914.314
624.116	17938.471
624.244	17991.843
624.372	18034.451
624.500	18052.196
624.628	18050.745
624.756	18098.863
624.884	18280.431
625.013	18379.196
625.141	18367.275
625.269	18261.784
625.397	18350.294
625.525	18495.235
625.653	18327.412
625.781	18478.471
625.909	18348.902
626.038	18388.804
626.166	18406.235
626.294	18413.569
626.422	18501.373
626.550	18516.235
626.678	18589.549
626.806	18478.255
626.934	18568.549
627.063	18590.157
627.191	18576.353
627.319	18658.471
627.447	18635.451
627.575	18666.137
627.703	18660.588
627.831	18711.843
627.959	18684.882
628.088	18745.059
628.216	18786.137
628.344	18700.294
628.472	18672.686
628.600	18837.137
628.728	18662.882
628.856	18575.745
628.984	18567.000
629.113	18669.275
629.241	18606.176
629.369	18600.490
629.497	18630.137
629.625	18570.020
