spectrometer_90_40nm_hybrid_at_650.00nm_cut_at_1184.50Y_01.dat
02.05.2022
11:50:02
cut middle at Y: 1184.50
top cursor: 1210 down cursor: 1159 mean of: 51 lines , 2560 datapoints
wavelength(nm)	intensity[arb. units]
485.997	5953.098
486.125	5438.765
486.253	5298.961
486.381	5278.216
486.510	5345.706
486.638	5412.765
486.766	5432.000
486.894	5439.353
487.022	5475.941
487.150	5468.588
487.278	5510.294
487.406	5511.431
487.535	5530.490
487.663	5580.863
487.791	5533.902
487.919	5581.843
488.047	5592.392
488.175	5630.451
488.303	5670.941
488.431	5667.275
488.560	5742.549
488.688	5736.627
488.816	5711.961
488.944	5783.235
489.072	5763.412
489.200	5831.000
489.328	5834.529
489.456	5871.667
489.585	5889.255
489.713	5871.706
489.841	5848.824
489.969	5840.627
490.097	5886.078
490.225	5884.549
490.353	5969.588
490.481	5881.882
490.610	5906.196
490.738	5885.059
490.866	5963.627
490.994	5909.863
491.122	5968.745
491.250	5946.118
491.378	5949.824
491.506	6021.137
491.635	5958.137
491.763	5978.510
491.891	5976.843
492.019	6000.373
492.147	5965.039
492.275	5961.843
492.403	5964.196
492.531	6129.608
492.660	6067.784
492.788	6061.000
492.916	6126.549
493.044	6001.275
493.172	6114.647
493.300	6060.235
493.428	6089.961
493.556	6122.216
493.685	6156.725
493.813	6158.392
493.941	6170.804
494.069	6227.314
494.197	6278.294
494.325	6282.725
494.453	6426.000
494.581	6334.608
494.710	6361.235
494.838	6403.745
494.966	6484.039
495.094	6427.784
495.222	6532.608
495.350	6508.569
495.478	6533.510
495.606	6584.118
495.735	6585.706
495.863	6625.922
495.991	6626.706
496.119	6662.706
496.247	6704.137
496.375	6685.569
496.503	6692.137
496.631	6672.471
496.760	6683.451
496.888	6706.627
497.016	6697.804
497.144	6727.353
497.272	6720.275
497.400	6738.039
497.528	6706.627
497.656	6714.529
497.785	6688.980
497.913	6708.314
498.041	6700.196
498.169	6698.902
498.297	6685.725
498.425	6816.333
498.553	6705.667
498.681	6712.647
498.810	6754.784
498.938	6696.412
499.066	6724.961
499.194	6752.569
499.322	6789.980
499.450	6709.098
499.578	6725.353
499.706	6763.078
499.835	6771.667
499.963	6753.902
500.091	6824.765
500.219	6812.392
500.347	6831.216
500.475	6808.686
500.603	6821.451
500.731	6897.902
500.860	6870.373
500.988	6928.902
501.116	6875.647
501.244	6904.824
501.372	7018.980
501.500	6981.392
501.628	7063.471
501.756	7039.588
501.885	7130.784
502.013	7027.353
502.141	7102.314
502.269	7117.549
502.397	7238.765
502.525	7161.157
502.653	7259.529
502.781	7239.490
502.910	7272.000
503.038	7318.196
503.166	7270.000
503.294	7296.078
503.422	7317.490
503.550	7302.235
503.678	7341.569
503.806	7330.314
503.935	7333.471
504.063	7350.569
504.191	7333.667
504.319	7363.588
504.447	7299.275
504.575	7369.882
504.703	7388.824
504.831	7322.392
504.960	7342.824
505.088	7385.980
505.216	7421.078
505.344	7425.314
505.472	7403.294
505.600	7362.314
505.728	7466.333
505.856	7443.078
505.985	7458.961
506.113	7453.000
506.241	7478.353
506.369	7460.490
506.497	7441.176
506.625	7532.451
506.753	7468.667
506.881	7516.667
507.010	7520.157
507.138	7522.216
507.266	7614.490
507.394	7553.863
507.522	7670.137
507.650	7614.235
507.778	7653.765
507.906	7696.922
508.035	7692.314
508.163	7737.510
508.291	7740.118
508.419	7867.157
508.547	7850.843
508.675	7898.196
508.803	7813.353
508.931	7888.667
509.060	7894.765
509.188	7888.176
509.316	7886.176
509.444	7899.431
509.572	8017.784
509.700	7933.490
509.828	8008.922
509.956	7979.941
510.085	7922.961
510.213	7970.373
510.341	7942.922
510.469	8019.941
510.597	8067.118
510.725	7979.549
510.853	8114.804
510.981	8078.078
511.110	8071.059
511.238	8061.020
511.366	8084.804
511.494	8079.412
511.622	8063.824
511.750	8132.431
511.878	8141.961
512.006	8098.020
512.135	8118.255
512.263	8145.255
512.391	8153.314
512.519	8156.588
512.647	8127.588
512.775	8221.549
512.903	8188.373
513.031	8173.745
513.160	8175.471
513.288	8240.686
513.416	8203.961
513.544	8198.882
513.672	8217.882
513.800	8219.824
513.928	8188.863
514.056	8271.863
514.185	8226.569
514.313	8202.490
514.441	8258.569
514.569	8203.314
514.697	8232.647
514.825	8203.843
514.953	8192.294
515.081	8164.196
515.210	8165.314
515.338	8263.647
515.466	8159.157
515.594	8146.863
515.722	8133.392
515.850	8139.882
515.978	8117.333
516.106	8173.510
516.235	8138.922
516.363	8171.765
516.491	8161.667
516.619	8187.765
516.747	8255.608
516.875	8204.824
517.003	8220.725
517.131	8209.392
517.260	8180.490
517.388	8287.510
517.516	8229.745
517.644	8312.333
517.772	8338.882
517.900	8312.510
518.028	8376.804
518.156	8349.176
518.284	8353.745
518.413	8395.569
518.541	8454.765
518.669	8461.569
518.797	8495.000
518.925	8513.294
519.053	8562.529
519.181	8523.118
519.309	8528.118
519.438	8596.216
519.566	8626.000
519.694	8620.686
519.822	8710.765
519.950	8683.922
520.078	8723.059
520.206	8762.510
520.334	8812.863
520.463	8770.412
520.591	8792.725
520.719	8761.882
520.847	8799.961
520.975	8779.176
521.103	8828.941
521.231	8747.627
521.359	8937.549
521.488	8819.078
521.616	8886.627
521.744	8771.176
521.872	8856.784
522.000	8799.863
522.128	8745.471
522.256	8754.216
522.384	8740.784
522.513	8748.412
522.641	8720.353
522.769	8733.490
522.897	8773.333
523.025	8743.608
523.153	8702.451
523.281	8762.961
523.409	8629.902
523.538	8677.353
523.666	8643.863
523.794	8680.549
523.922	8697.216
524.050	8653.137
524.178	8666.627
524.306	8635.627
524.434	8714.490
524.563	8735.471
524.691	8839.176
524.819	8700.039
524.947	8731.804
525.075	8739.667
525.203	8760.275
525.331	8830.471
525.459	8902.235
525.588	8800.333
525.716	8945.412
525.844	8886.667
525.972	8953.549
526.100	8936.353
526.228	8989.667
526.356	8977.235
526.484	9094.118
526.613	9068.255
526.741	9109.118
526.869	9142.333
526.997	9195.941
527.125	9205.647
527.253	9238.118
527.381	9295.157
527.509	9310.706
527.638	9359.863
527.766	9425.098
527.894	9430.235
528.022	9499.902
528.150	9423.098
528.278	9537.627
528.406	9527.157
528.534	9508.196
528.663	9511.941
528.791	9605.745
528.919	9571.078
529.047	9699.647
529.175	9570.588
529.303	9614.824
529.431	9566.549
529.559	9652.804
529.688	9584.000
529.816	9618.431
529.944	9781.412
530.072	9678.902
530.200	9700.353
530.328	9698.235
530.456	9691.275
530.584	9694.020
530.713	9693.176
530.841	9721.275
530.969	9749.078
531.097	9643.647
531.225	9682.490
531.353	9794.020
531.481	9704.529
531.609	9903.667
531.738	9724.098
531.866	9794.157
531.994	9804.176
532.122	9866.137
532.250	9758.608
532.378	9712.137
532.506	9683.471
532.634	9713.510
532.763	9641.902
532.891	9709.667
533.019	9719.235
533.147	9711.373
533.275	9688.549
533.403	9717.922
533.531	9662.549
533.659	9683.922
533.788	9691.373
533.916	9668.902
534.044	9710.569
534.172	9764.980
534.300	9741.216
534.428	9725.314
534.556	9894.000
534.684	9774.941
534.813	9769.000
534.941	9725.353
535.069	9688.961
535.197	9725.706
535.325	9709.431
535.453	9714.667
535.581	9803.373
535.709	9725.431
535.838	9732.725
535.966	9756.373
536.094	9767.902
536.222	9774.255
536.350	9768.196
536.478	9719.824
536.606	9820.824
536.734	9791.627
536.863	9788.980
536.991	9813.471
537.119	9837.824
537.247	9831.020
537.375	9945.294
537.503	9850.510
537.631	9826.098
537.759	9838.529
537.888	9792.902
538.016	10034.529
538.144	9908.627
538.272	9827.725
538.400	9905.373
538.528	9882.118
538.656	9952.608
538.784	9945.863
538.913	10024.059
539.041	10023.471
539.169	9961.275
539.297	10013.157
539.425	10139.647
539.553	10076.627
539.681	10134.922
539.809	10107.353
539.938	10101.706
540.066	10175.314
540.194	10232.490
540.322	10312.627
540.450	10321.314
540.578	10217.882
540.706	10307.196
540.834	10313.059
540.963	10432.471
541.091	10374.529
541.219	10368.941
541.347	10473.490
541.475	10453.196
541.603	10459.569
541.731	10486.275
541.859	10456.961
541.988	10483.706
542.116	10637.216
542.244	10535.843
542.372	10663.196
542.500	10576.451
542.628	10652.020
542.756	10581.353
542.884	10570.039
543.013	10580.196
543.141	10707.157
543.269	10661.431
543.397	10537.843
543.525	10617.667
543.653	10719.549
543.781	10572.078
543.909	10599.255
544.038	10682.627
544.166	10645.255
544.294	10713.667
544.422	10577.294
544.550	10654.392
544.678	10635.529
544.806	10579.294
544.934	10574.000
545.063	10618.098
545.191	10687.098
545.319	10624.275
545.447	10475.157
545.575	10508.529
545.703	10543.392
545.831	10541.392
545.959	10521.235
546.088	10529.000
546.216	10499.667
546.344	10503.431
546.472	10656.529
546.600	10524.843
546.728	10532.529
546.856	10548.451
546.984	10506.608
547.113	10621.843
547.241	10611.471
547.369	10703.647
547.497	10631.392
547.625	10636.137
547.753	10568.784
547.881	10553.549
548.009	10557.980
548.138	10559.490
548.266	10508.647
548.394	10539.608
548.522	10462.098
548.650	10615.294
548.778	10502.157
548.906	10441.039
549.034	10508.667
549.163	10364.137
549.291	10386.392
549.419	10435.000
549.547	10663.725
549.675	10595.412
549.803	10583.451
549.931	10675.431
550.059	10703.059
550.188	10826.510
550.316	10823.235
550.444	10971.647
550.572	10968.863
550.700	11025.314
550.828	11100.686
550.956	11149.314
551.084	11218.333
551.213	11153.882
551.341	11250.078
551.469	11201.412
551.597	11296.373
551.725	11323.275
551.853	11302.961
551.981	11370.392
552.109	11313.980
552.238	11424.020
552.366	11349.863
552.494	11328.373
552.622	11341.510
552.750	11422.922
552.878	11392.431
553.006	11471.549
553.134	11422.608
553.263	11424.843
553.391	11408.392
553.519	11579.588
553.647	11475.980
553.775	11472.647
553.903	11591.333
554.031	11544.784
554.159	11513.078
554.288	11558.882
554.416	11508.294
554.544	11599.039
554.672	11529.941
554.800	11572.529
554.928	11503.804
555.056	11473.588
555.184	11542.529
555.313	11505.510
555.441	11504.510
555.569	11507.294
555.697	11633.412
555.825	11567.098
555.953	11558.314
556.081	11508.745
556.209	11537.373
556.338	11599.922
556.466	11735.863
556.594	11543.647
556.722	11625.314
556.850	11687.765
556.978	11539.784
557.106	11593.490
557.234	11578.333
557.363	11695.627
557.491	11637.804
557.619	11659.843
557.747	11707.137
557.875	11697.882
558.003	11688.627
558.131	11706.431
558.259	11767.627
558.388	11722.902
558.516	11763.745
558.644	11760.863
558.772	11864.020
558.900	11798.078
559.028	11796.804
559.156	11849.647
559.284	11827.353
559.413	11842.039
559.541	11901.824
559.669	11911.353
559.797	11961.510
559.925	11918.706
560.053	12026.118
560.181	11928.333
560.309	12002.725
560.438	12015.373
560.566	11978.843
560.694	11964.059
560.822	12174.196
560.950	12070.275
561.078	12122.588
561.206	12232.451
561.334	12068.118
561.463	12018.725
561.591	12120.314
561.719	12089.275
561.847	12095.902
561.975	12046.431
562.103	12096.510
562.231	12130.078
562.359	12102.431
562.488	12150.000
562.616	12116.098
562.744	12162.039
562.872	12158.686
563.000	12085.627
563.128	12118.961
563.256	12069.706
563.384	12249.627
563.513	12088.529
563.641	12149.647
563.769	12149.137
563.897	12152.431
564.025	12112.529
564.153	12107.686
564.281	12212.686
564.409	12131.922
564.538	12148.922
564.666	12204.765
564.794	12190.667
564.922	12182.549
565.050	12241.020
565.178	12208.020
565.306	12233.275
565.434	12269.569
565.563	12425.098
565.691	12327.471
565.819	12550.216
565.947	12360.451
566.075	12383.451
566.203	12462.137
566.331	12414.529
566.459	13305.667
566.588	12492.882
566.716	12566.451
566.844	12534.137
566.972	12672.471
567.100	12688.922
567.228	12772.843
567.356	12875.353
567.484	12803.176
567.613	12889.529
567.741	12874.333
567.869	12917.176
567.997	12943.706
568.125	13004.098
568.253	13132.020
568.381	13040.647
568.509	13154.902
568.638	13130.471
568.766	13197.020
568.894	13171.608
569.022	13148.275
569.150	13245.804
569.278	13192.255
569.406	13365.471
569.534	13317.353
569.663	13290.431
569.791	13309.098
569.919	13378.529
570.047	13538.353
570.175	13394.255
570.303	13425.314
570.431	13401.863
570.559	13448.235
570.688	13584.412
570.816	13448.059
570.944	13525.549
571.072	13515.176
571.200	13418.314
571.328	13438.667
571.456	13576.549
571.584	13508.882
571.713	13521.686
571.841	13618.039
571.969	13695.608
572.097	13706.451
572.225	13559.000
572.353	13466.196
572.481	13461.000
572.609	13534.098
572.738	13490.196
572.866	13471.373
572.994	13419.667
573.122	13487.255
573.250	13470.745
573.378	13406.020
573.506	13380.980
573.634	13454.588
573.763	13334.235
573.891	13360.922
574.019	13417.529
574.147	13383.843
574.275	13374.314
574.403	13384.902
574.531	13294.451
574.659	13279.725
574.788	13278.647
574.916	13370.275
575.044	13249.471
575.172	13184.706
575.300	13165.000
575.428	13163.137
575.556	13094.275
575.684	13148.490
575.813	13072.490
575.941	13134.510
576.069	13034.471
576.197	13144.510
576.325	13014.098
576.453	13049.373
576.581	13030.706
576.709	12999.314
576.838	13004.333
576.966	13116.510
577.094	13158.294
577.222	13050.569
577.350	13016.196
577.478	13063.235
577.606	13051.608
577.734	13123.843
577.863	13141.471
577.991	13190.314
578.119	13262.294
578.247	13230.490
578.375	13280.647
578.503	13232.922
578.631	13247.039
578.759	13306.314
578.888	13482.098
579.016	13287.137
579.144	13329.353
579.272	13372.490
579.400	13385.451
579.528	13452.902
579.656	13543.412
579.784	13495.157
579.913	13539.373
580.041	13727.667
580.169	13529.039
580.297	13607.431
580.425	13635.627
580.553	13706.314
580.681	13786.922
580.809	13755.314
580.938	13791.275
581.066	13890.137
581.194	13813.765
581.322	13808.353
581.450	13944.784
581.578	13864.392
581.706	13878.000
581.834	13912.235
581.963	13963.902
582.091	13977.765
582.219	14041.980
582.347	14036.020
582.475	13998.373
582.603	14045.294
582.731	14160.725
582.859	14053.039
582.988	14128.255
583.116	14159.706
583.244	14152.824
583.372	14187.412
583.500	14178.627
583.628	14268.471
583.756	14270.314
583.884	14227.490
584.013	14315.627
584.141	14290.961
584.269	14310.235
584.397	14398.039
584.525	14315.490
584.653	14366.804
584.781	14402.235
584.909	14444.020
585.038	14429.255
585.166	14410.333
585.294	14511.000
585.422	14488.490
585.550	14424.176
585.678	14440.078
585.806	14495.686
585.934	14487.451
586.063	14513.824
586.191	14505.980
586.319	14520.373
586.447	14491.157
586.575	14518.686
586.703	14599.098
586.831	14506.588
586.959	14596.471
587.088	14531.451
587.216	14516.176
587.344	14581.451
587.472	14748.922
587.600	14534.627
587.728	14507.961
587.856	14564.235
587.984	14571.902
588.113	14634.353
588.241	14640.569
588.369	14609.529
588.497	14608.412
588.625	14609.196
588.753	14745.020
588.881	14625.039
589.009	14630.314
589.138	14698.353
589.266	14679.549
589.394	14717.902
589.522	14752.804
589.650	14813.804
589.778	14773.373
589.906	14849.333
590.034	14768.000
590.163	14721.118
590.291	14829.686
590.419	14801.549
590.547	14898.549
590.675	14893.608
590.803	14915.941
590.931	14887.804
591.059	14870.804
591.188	14902.647
591.316	14822.784
591.444	14885.314
591.572	14985.078
591.700	14963.157
591.828	14949.765
591.956	15011.588
592.084	15016.196
592.213	15064.294
592.341	15000.118
592.469	15036.216
592.597	14979.922
592.725	14977.490
592.853	15007.392
592.981	15041.667
593.109	15003.784
593.238	15001.294
593.366	14958.059
593.494	14957.824
593.622	14993.863
593.750	14987.235
593.878	15042.686
594.006	14922.196
594.134	14962.608
594.263	14996.020
594.391	14903.549
594.519	14965.471
594.647	15001.706
594.775	14912.235
594.903	14900.706
595.031	14993.333
595.159	14968.882
595.288	14962.706
595.416	14940.471
595.544	14918.118
595.672	14886.078
595.800	14962.902
595.928	14886.824
596.056	14870.882
596.184	14829.490
596.313	15023.529
596.441	14848.784
596.569	14870.275
596.697	14772.745
596.825	14760.255
596.953	14777.941
597.081	14872.765
597.209	14803.000
597.338	14850.686
597.466	14865.020
597.594	14799.059
597.722	14974.843
597.850	14922.549
597.978	14912.157
598.106	15046.039
598.234	15007.765
598.363	14892.412
598.491	15136.863
598.619	14964.157
598.747	14974.569
598.875	15094.824
599.003	15027.706
599.131	15105.706
599.259	15085.078
599.388	15022.039
599.516	15229.157
599.644	15243.667
599.772	15377.745
599.900	15307.294
600.028	15262.275
600.156	15361.412
600.284	15317.882
600.413	15361.863
600.541	15449.235
600.669	15537.431
600.797	15429.588
600.925	15572.490
601.053	15559.824
601.181	15550.392
601.309	15539.275
601.438	15561.314
601.566	15525.314
601.694	15653.275
601.822	15860.451
601.950	15608.882
602.078	15669.882
602.206	15722.333
602.334	15710.863
602.463	15736.667
602.591	15837.863
602.719	15797.647
602.847	16034.941
602.975	15859.745
603.103	15869.314
603.231	15919.353
603.359	15945.431
603.488	15897.863
603.616	15950.706
603.744	16010.353
603.872	15987.824
604.000	16035.118
604.128	16011.941
604.256	15982.333
604.384	16075.569
604.513	16113.137
604.641	16119.000
604.769	16134.647
604.897	16063.902
605.025	15995.392
605.153	16046.667
605.281	16083.627
605.409	16049.784
605.538	16018.392
605.666	16032.176
605.794	16012.804
605.922	16146.314
606.050	16060.980
606.178	16100.922
606.306	16067.588
606.434	16113.235
606.563	16055.000
606.691	16095.412
606.819	16145.980
606.947	16160.412
607.075	16105.373
607.203	16104.235
607.331	16203.471
607.459	16118.569
607.588	16059.333
607.716	16141.255
607.844	16176.098
607.972	16176.569
608.100	16109.882
608.228	16100.078
608.356	16149.353
608.484	16129.235
608.613	16139.098
608.741	16116.608
608.869	16112.333
608.997	16157.098
609.125	16144.745
609.253	16154.333
609.381	16077.922
609.509	16040.922
609.638	16119.118
609.766	16061.000
609.894	16088.275
610.022	16007.843
610.150	16092.686
610.278	16003.275
610.406	16049.020
610.534	16077.608
610.663	16032.902
610.791	16157.490
610.919	15931.686
611.047	16130.020
611.175	16026.706
611.303	16088.098
611.431	16071.353
611.559	16072.961
611.688	16062.333
611.816	16073.627
611.944	16058.608
612.072	16080.471
612.200	16137.333
612.328	16183.490
612.456	16096.529
612.584	16259.235
612.713	16116.078
612.841	16210.725
612.969	16174.549
613.097	16182.627
613.225	16122.980
613.353	16215.353
613.481	16098.098
613.609	16192.510
613.738	16170.569
613.866	16252.961
613.994	16246.176
614.122	16277.098
614.250	16293.627
614.378	16326.725
614.506	16296.765
614.634	16366.922
614.763	16339.137
614.891	16361.569
615.019	16363.510
615.147	16515.137
615.275	16431.137
615.403	16488.196
615.531	16501.980
615.659	16577.941
615.788	16549.059
615.916	16654.902
616.044	16607.451
616.172	16750.137
616.300	16594.451
616.428	16689.294
616.556	16683.255
616.684	16745.588
616.813	16740.039
616.941	16788.725
617.069	16762.235
617.197	16994.882
617.325	16921.098
617.453	16861.804
617.581	16904.392
617.709	16803.588
617.838	16862.216
617.966	16867.706
618.094	16919.373
618.222	16889.961
618.350	16965.667
618.478	16788.941
618.606	16984.569
618.734	16986.608
618.863	16999.098
618.991	16924.961
619.119	17027.353
619.247	16932.745
619.375	17019.118
619.503	17026.706
619.631	17151.333
619.759	16961.118
619.888	17021.902
620.016	17136.020
620.144	17105.804
620.272	16999.725
620.400	17123.216
620.528	17065.333
620.656	17201.824
620.784	17157.333
620.913	17137.784
621.041	17147.471
621.169	17212.922
621.297	17141.725
621.425	17165.745
621.553	17201.804
621.681	17293.294
621.809	17273.333
621.938	17271.451
622.066	17398.412
622.194	17321.353
622.322	17372.765
622.450	17398.255
622.578	17350.725
622.706	17419.353
622.834	17447.667
622.963	17510.275
623.091	17483.373
623.219	17516.765
623.347	17608.294
623.475	17545.961
623.603	17523.137
623.731	17612.039
623.859	17693.373
623.988	17754.118
624.116	17749.451
624.244	17855.216
624.372	17810.569
624.500	17850.078
624.628	17853.255
624.756	17923.137
624.884	18073.745
625.013	18117.412
625.141	18010.824
625.269	18054.686
625.397	18126.980
625.525	18204.078
625.653	18070.216
625.781	18240.059
625.909	18170.137
626.038	18178.294
626.166	18182.216
626.294	18173.490
626.422	18231.510
626.550	18293.490
626.678	18321.314
626.806	18206.804
626.934	18286.843
627.063	18297.373
627.191	18318.118
627.319	18344.882
627.447	18324.373
627.575	18322.863
627.703	18333.412
627.831	18453.784
627.959	18447.235
628.088	18455.020
628.216	18517.608
628.344	18414.804
628.472	18431.667
628.600	18642.373
628.728	18423.098
628.856	18425.078
628.984	18408.510
629.113	18350.216
629.241	18362.137
629.369	18315.118
629.497	18345.059
629.625	18319.176
