spectrometer_90_70nm_einzel_at_650.00nm_cut_at_1184.50Y_01.dat
02.05.2022
11:40:41
cut middle at Y: 1184.50
top cursor: 1210 down cursor: 1159 mean of: 51 lines , 2560 datapoints
wavelength(nm)	intensity[arb. units]
485.997	6629.941
486.125	6059.216
486.253	5927.216
486.381	5902.157
486.510	5960.157
486.638	6042.843
486.766	6032.667
486.894	6066.098
487.022	6133.373
487.150	6126.667
487.278	6145.294
487.406	6110.196
487.535	6161.510
487.663	6241.176
487.791	6217.294
487.919	6260.882
488.047	6266.255
488.175	6336.863
488.303	6293.196
488.431	6347.863
488.560	6340.569
488.688	6374.922
488.816	6400.529
488.944	6446.765
489.072	6418.627
489.200	6461.275
489.328	6510.647
489.456	6540.373
489.585	6531.294
489.713	6537.510
489.841	6518.137
489.969	6539.608
490.097	6553.020
490.225	6524.176
490.353	6621.745
490.481	6559.412
490.610	6565.627
490.738	6549.059
490.866	6632.843
490.994	6550.863
491.122	6628.216
491.250	6591.490
491.378	6613.353
491.506	6693.412
491.635	6604.098
491.763	6624.333
491.891	6619.725
492.019	6715.980
492.147	6652.255
492.275	6626.824
492.403	6626.863
492.531	6823.706
492.660	6690.294
492.788	6721.255
492.916	6758.157
493.044	6703.961
493.172	6748.275
493.300	6733.235
493.428	6783.765
493.556	6798.647
493.685	6859.392
493.813	6814.098
493.941	6861.000
494.069	6883.078
494.197	6918.039
494.325	6978.529
494.453	7119.843
494.581	7020.235
494.710	7083.353
494.838	7081.667
494.966	7188.000
495.094	7108.412
495.222	7258.902
495.350	7209.902
495.478	7235.176
495.606	7284.725
495.735	7286.804
495.863	7338.235
495.991	7360.157
496.119	7378.980
496.247	7404.137
496.375	7393.020
496.503	7416.490
496.631	7412.961
496.760	7392.980
496.888	7393.784
497.016	7471.706
497.144	7434.941
497.272	7410.275
497.400	7448.941
497.528	7400.863
497.656	7416.510
497.785	7421.216
497.913	7394.176
498.041	7447.706
498.169	7417.039
498.297	7370.078
498.425	7530.255
498.553	7383.000
498.681	7404.706
498.810	7478.667
498.938	7390.549
499.066	7431.255
499.194	7480.157
499.322	7462.686
499.450	7439.784
499.578	7436.255
499.706	7474.784
499.835	7499.216
499.963	7485.725
500.091	7517.471
500.219	7492.471
500.347	7553.333
500.475	7542.157
500.603	7530.706
500.731	7569.824
500.860	7594.020
500.988	7629.176
501.116	7617.137
501.244	7687.980
501.372	7750.843
501.500	7736.431
501.628	7750.216
501.756	7749.118
501.885	7831.902
502.013	7791.294
502.141	7838.314
502.269	7813.353
502.397	7986.569
502.525	7924.529
502.653	8015.882
502.781	7982.804
502.910	8022.961
503.038	8026.176
503.166	8036.627
503.294	8019.980
503.422	8098.000
503.550	8081.471
503.678	8079.412
503.806	8092.745
503.935	8071.353
504.063	8113.843
504.191	8126.765
504.319	8105.824
504.447	8087.373
504.575	8094.843
504.703	8144.412
504.831	8043.078
504.960	8031.882
505.088	8111.098
505.216	8147.353
505.344	8175.725
505.472	8108.235
505.600	8085.059
505.728	8208.667
505.856	8207.078
505.985	8209.922
506.113	8186.863
506.241	8223.725
506.369	8197.647
506.497	8213.353
506.625	8279.490
506.753	8252.569
506.881	8289.706
507.010	8299.137
507.138	8257.098
507.266	8350.392
507.394	8342.784
507.522	8456.000
507.650	8362.961
507.778	8383.843
507.906	8461.490
508.035	8472.294
508.163	8535.902
508.291	8488.627
508.419	8630.824
508.547	8612.059
508.675	8645.314
508.803	8593.804
508.931	8625.157
509.060	8651.824
509.188	8655.922
509.316	8639.235
509.444	8660.314
509.572	8800.843
509.700	8690.667
509.828	8774.588
509.956	8802.980
510.085	8706.706
510.213	8752.255
510.341	8726.941
510.469	8792.647
510.597	8828.804
510.725	8766.255
510.853	8899.843
510.981	8861.490
511.110	8816.235
511.238	8797.020
511.366	8868.275
511.494	8889.471
511.622	8896.157
511.750	8922.471
511.878	8955.078
512.006	8904.176
512.135	8976.765
512.263	8926.176
512.391	8992.157
512.519	8986.882
512.647	8952.902
512.775	8988.824
512.903	8989.529
513.031	8955.784
513.160	8995.863
513.288	9069.667
513.416	9004.196
513.544	9014.196
513.672	8980.824
513.800	9087.647
513.928	9016.471
514.056	9020.510
514.185	9010.902
514.313	8965.490
514.441	9076.176
514.569	9026.255
514.697	9049.196
514.825	8979.235
514.953	9008.804
515.081	8957.608
515.210	8944.863
515.338	9056.275
515.466	8922.176
515.594	8988.216
515.722	8927.471
515.850	8957.020
515.978	8887.843
516.106	8951.647
516.235	8914.451
516.363	8945.608
516.491	8955.333
516.619	8968.804
516.747	9046.725
516.875	8995.216
517.003	8967.333
517.131	9025.863
517.260	8955.627
517.388	9012.824
517.516	9053.118
517.644	9073.667
517.772	9100.059
517.900	9074.745
518.028	9141.176
518.156	9150.020
518.284	9151.510
518.413	9182.353
518.541	9233.196
518.669	9279.922
518.797	9306.863
518.925	9262.118
519.053	9309.020
519.181	9298.980
519.309	9386.196
519.438	9402.000
519.566	9437.765
519.694	9415.157
519.822	9508.922
519.950	9476.902
520.078	9520.686
520.206	9574.627
520.334	9616.510
520.463	9540.157
520.591	9605.647
520.719	9622.980
520.847	9593.922
520.975	9579.745
521.103	9689.098
521.231	9591.725
521.359	9762.627
521.488	9670.686
521.616	9708.020
521.744	9596.176
521.872	9684.490
522.000	9572.078
522.128	9567.333
522.256	9588.333
522.384	9586.961
522.513	9523.471
522.641	9520.882
522.769	9611.471
522.897	9521.490
523.025	9500.549
523.153	9473.627
523.281	9529.784
523.409	9468.098
523.538	9481.804
523.666	9430.353
523.794	9485.255
523.922	9433.608
524.050	9417.373
524.178	9444.059
524.306	9436.314
524.434	9487.000
524.563	9525.451
524.691	9643.412
524.819	9497.255
524.947	9538.039
525.075	9545.275
525.203	9599.392
525.331	9583.745
525.459	9695.765
525.588	9649.373
525.716	9694.000
525.844	9667.333
525.972	9751.882
526.100	9749.412
526.228	9815.745
526.356	9789.667
526.484	9930.235
526.613	9856.255
526.741	9923.941
526.869	9965.176
526.997	10010.824
527.125	10065.118
527.253	10050.510
527.381	10159.706
527.509	10110.392
527.638	10201.294
527.766	10294.725
527.894	10255.980
528.022	10353.216
528.150	10306.196
528.278	10414.039
528.406	10375.706
528.534	10394.686
528.663	10396.059
528.791	10566.196
528.919	10430.431
529.047	10586.196
529.175	10456.961
529.303	10441.961
529.431	10441.039
529.559	10520.804
529.688	10472.353
529.816	10486.431
529.944	10598.706
530.072	10536.118
530.200	10534.039
530.328	10544.569
530.456	10599.000
530.584	10614.902
530.713	10627.078
530.841	10603.980
530.969	10609.686
531.097	10580.059
531.225	10560.333
531.353	10717.333
531.481	10602.941
531.609	10733.745
531.738	10569.706
531.866	10720.118
531.994	10638.608
532.122	10762.529
532.250	10657.706
532.378	10585.451
532.506	10595.863
532.634	10588.373
532.763	10530.686
532.891	10546.745
533.019	10547.784
533.147	10513.745
533.275	10471.667
533.403	10571.863
533.531	10543.569
533.659	10558.020
533.788	10571.314
533.916	10537.824
534.044	10644.431
534.172	10639.961
534.300	10588.902
534.428	10569.569
534.556	10777.765
534.684	10590.431
534.813	10586.510
534.941	10594.078
535.069	10606.392
535.197	10591.706
535.325	10595.647
535.453	10539.451
535.581	10704.882
535.709	10571.980
535.838	10575.294
535.966	10611.588
536.094	10635.392
536.222	10590.706
536.350	10587.451
536.478	10577.941
536.606	10699.275
536.734	10677.569
536.863	10671.431
536.991	10710.745
537.119	10715.667
537.247	10710.824
537.375	10844.824
537.503	10679.431
537.631	10704.275
537.759	10672.471
537.888	10659.333
538.016	10890.196
538.144	10751.255
538.272	10746.431
538.400	10797.412
538.528	10742.843
538.656	10816.176
538.784	10832.039
538.913	10912.725
539.041	10868.431
539.169	10875.745
539.297	10863.373
539.425	10983.137
539.553	10949.275
539.681	11021.961
539.809	11016.333
539.938	11030.176
540.066	11075.529
540.194	11097.451
540.322	11227.196
540.450	11183.471
540.578	11170.588
540.706	11219.255
540.834	11255.353
540.963	11312.549
541.091	11291.000
541.219	11300.627
541.347	11417.725
541.475	11345.392
541.603	11388.549
541.731	11373.922
541.859	11391.941
541.988	11430.510
542.116	11635.118
542.244	11471.941
542.372	11623.784
542.500	11484.529
542.628	11530.922
542.756	11540.098
542.884	11551.353
543.013	11537.275
543.141	11581.490
543.269	11600.608
543.397	11471.902
543.525	11511.294
543.653	11596.392
543.781	11490.529
543.909	11484.392
544.038	11571.471
544.166	11551.725
544.294	11626.157
544.422	11443.255
544.550	11497.941
544.678	11540.647
544.806	11438.333
544.934	11477.451
545.063	11526.549
545.191	11610.039
545.319	11488.255
545.447	11372.961
545.575	11401.902
545.703	11509.275
545.831	11450.020
545.959	11397.863
546.088	11370.353
546.216	11378.784
546.344	11451.373
546.472	11573.196
546.600	11397.902
546.728	11415.118
546.856	11441.020
546.984	11374.725
547.113	11475.412
547.241	11503.451
547.369	11558.569
547.497	11529.510
547.625	11548.392
547.753	11488.020
547.881	11468.392
548.009	11447.863
548.138	11467.706
548.266	11402.490
548.394	11461.333
548.522	11345.765
548.650	11466.412
548.778	11375.686
548.906	11319.647
549.034	11390.725
549.163	11251.941
549.291	11232.980
549.419	11266.020
549.547	11510.039
549.675	11445.412
549.803	11475.961
549.931	11567.176
550.059	11619.608
550.188	11770.686
550.316	11770.549
550.444	11855.510
550.572	11837.137
550.700	11994.157
550.828	12032.275
550.956	12048.275
551.084	12135.059
551.213	12107.275
551.341	12161.863
551.469	12173.686
551.597	12232.941
551.725	12293.922
551.853	12226.882
551.981	12292.608
552.109	12281.549
552.238	12302.490
552.366	12318.000
552.494	12304.353
552.622	12305.608
552.750	12354.902
552.878	12329.412
553.006	12441.392
553.134	12363.373
553.263	12317.137
553.391	12409.667
553.519	12571.137
553.647	12467.902
553.775	12388.000
553.903	12542.863
554.031	12489.647
554.159	12426.431
554.288	12528.451
554.416	12498.373
554.544	12527.608
554.672	12460.373
554.800	12523.020
554.928	12454.980
555.056	12473.588
555.184	12495.373
555.313	12498.510
555.441	12477.490
555.569	12464.569
555.697	12541.294
555.825	12497.922
555.953	12560.039
556.081	12420.431
556.209	12508.118
556.338	12558.706
556.466	12674.314
556.594	12528.608
556.722	12606.627
556.850	12655.235
556.978	12500.392
557.106	12587.922
557.234	12551.627
557.363	12637.725
557.491	12628.196
557.619	12651.020
557.747	12671.804
557.875	12609.980
558.003	12682.471
558.131	12687.275
558.259	12668.941
558.388	12687.784
558.516	12748.725
558.644	12731.980
558.772	12845.059
558.900	12768.333
559.028	12747.196
559.156	12790.137
559.284	12761.490
559.413	12804.843
559.541	12840.118
559.669	12883.608
559.797	12982.510
559.925	12867.020
560.053	12975.686
560.181	12914.176
560.309	12952.451
560.438	12990.157
560.566	12994.176
560.694	12983.784
560.822	13139.647
560.950	12994.431
561.078	13040.529
561.206	13173.922
561.334	13001.000
561.463	13053.176
561.591	13128.431
561.719	13057.451
561.847	13127.529
561.975	13042.353
562.103	13163.078
562.231	13077.137
562.359	13023.275
562.488	13106.490
562.616	13074.314
562.744	13127.765
562.872	13078.000
563.000	13009.667
563.128	13056.529
563.256	13054.098
563.384	13170.255
563.513	13015.275
563.641	13055.824
563.769	13108.549
563.897	13060.020
564.025	13088.176
564.153	13064.941
564.281	13198.745
564.409	13043.098
564.538	13026.118
564.666	13107.373
564.794	13181.588
564.922	13137.255
565.050	13233.333
565.178	13147.333
565.306	13222.529
565.434	13270.176
565.563	13380.020
565.691	13293.235
565.819	13502.843
565.947	13330.922
566.075	13424.706
566.203	13461.765
566.331	13398.412
566.459	14288.137
566.588	13456.157
566.716	13476.059
566.844	13518.686
566.972	13679.902
567.100	13705.549
567.228	13782.294
567.356	13828.255
567.484	13714.745
567.613	13820.510
567.741	13850.882
567.869	13866.431
567.997	13896.196
568.125	14054.980
568.253	14104.039
568.381	14082.098
568.509	14096.059
568.638	14125.039
568.766	14164.157
568.894	14163.843
569.022	14177.569
569.150	14264.804
569.278	14210.686
569.406	14358.980
569.534	14362.078
569.663	14292.529
569.791	14365.373
569.919	14385.255
570.047	14556.235
570.175	14343.294
570.303	14400.392
570.431	14380.314
570.559	14528.510
570.688	14569.235
570.816	14426.843
570.944	14517.353
571.072	14484.059
571.200	14433.902
571.328	14513.510
571.456	14576.078
571.584	14536.882
571.713	14524.745
571.841	14540.627
571.969	14683.725
572.097	14648.157
572.225	14453.569
572.353	14492.098
572.481	14457.000
572.609	14483.275
572.738	14445.039
572.866	14434.784
572.994	14415.353
573.122	14396.765
573.250	14403.863
573.378	14328.627
573.506	14351.333
573.634	14413.078
573.763	14300.902
573.891	14333.078
574.019	14388.882
574.147	14269.529
574.275	14327.490
574.403	14337.902
574.531	14252.137
574.659	14245.118
574.788	14268.275
574.916	14331.843
575.044	14216.667
575.172	14186.902
575.300	14133.510
575.428	14097.020
575.556	14118.529
575.684	14104.118
575.813	14040.118
575.941	14049.961
576.069	13945.490
576.197	14027.078
576.325	13947.647
576.453	13954.176
576.581	13954.275
576.709	13928.137
576.838	13931.922
576.966	14020.549
577.094	14147.098
577.222	14023.020
577.350	13910.608
577.478	14007.529
577.606	13985.667
577.734	14006.216
577.863	14070.980
577.991	14110.098
578.119	14190.745
578.247	14146.059
578.375	14250.980
578.503	14135.725
578.631	14232.098
578.759	14285.353
578.888	14380.039
579.016	14236.353
579.144	14287.961
579.272	14346.510
579.400	14354.373
579.528	14413.784
579.656	14494.510
579.784	14396.725
579.913	14474.078
580.041	14664.235
580.169	14572.431
580.297	14587.294
580.425	14601.490
580.553	14615.608
580.681	14655.392
580.809	14665.059
580.938	14734.706
581.066	14811.392
581.194	14774.608
581.322	14755.392
581.450	14825.392
581.578	14846.412
581.706	14827.235
581.834	14866.216
581.963	14857.098
582.091	14849.235
582.219	14849.039
582.347	14903.490
582.475	14920.510
582.603	14956.176
582.731	15028.078
582.859	15006.765
582.988	15053.667
583.116	15047.549
583.244	15053.235
583.372	15096.098
583.500	15123.412
583.628	15233.667
583.756	15158.784
583.884	15166.961
584.013	15264.137
584.141	15183.843
584.269	15233.804
584.397	15284.843
584.525	15276.569
584.653	15230.549
584.781	15285.706
584.909	15290.980
585.038	15304.863
585.166	15270.333
585.294	15371.314
585.422	15390.824
585.550	15348.137
585.678	15339.255
585.806	15387.569
585.934	15390.627
586.063	15434.471
586.191	15432.373
586.319	15456.255
586.447	15426.392
586.575	15410.039
586.703	15472.039
586.831	15470.039
586.959	15475.765
587.088	15413.686
587.216	15496.353
587.344	15454.235
587.472	15607.020
587.600	15451.843
587.728	15442.608
587.856	15430.255
587.984	15459.510
588.113	15538.647
588.241	15500.137
588.369	15520.667
588.497	15473.529
588.625	15455.059
588.753	15685.510
588.881	15495.078
589.009	15522.627
589.138	15548.784
589.266	15496.569
589.394	15542.902
589.522	15527.490
589.650	15680.529
589.778	15626.196
589.906	15672.118
590.034	15600.882
590.163	15610.922
590.291	15692.784
590.419	15639.902
590.547	15715.196
590.675	15683.392
590.803	15716.275
590.931	15717.059
591.059	15714.255
591.188	15686.471
591.316	15707.980
591.444	15654.157
591.572	15836.667
591.700	15787.922
591.828	15731.608
591.956	15794.000
592.084	15781.725
592.213	15815.569
592.341	15759.471
592.469	15839.275
592.597	15840.196
592.725	15746.627
592.853	15800.137
592.981	15819.686
593.109	15825.294
593.238	15725.176
593.366	15736.392
593.494	15758.431
593.622	15721.843
593.750	15750.020
593.878	15822.902
594.006	15721.431
594.134	15725.863
594.263	15788.863
594.391	15700.627
594.519	15710.725
594.647	15693.843
594.775	15651.922
594.903	15646.863
595.031	15693.843
595.159	15730.314
595.288	15652.529
595.416	15672.176
595.544	15660.804
595.672	15578.588
595.800	15716.922
595.928	15614.863
596.056	15647.333
596.184	15582.745
596.313	15672.588
596.441	15580.843
596.569	15644.980
596.697	15525.941
596.825	15519.333
596.953	15506.745
597.081	15499.392
597.209	15459.020
597.338	15500.647
597.466	15466.216
597.594	15441.980
597.722	15610.588
597.850	15447.725
597.978	15487.824
598.106	15572.235
598.234	15613.784
598.363	15488.255
598.491	15668.882
598.619	15557.686
598.747	15607.412
598.875	15726.333
599.003	15677.196
599.131	15767.275
599.259	15780.000
599.388	15763.922
599.516	15832.275
599.644	15934.255
599.772	15954.039
599.900	15864.176
600.028	15921.510
600.156	16045.882
600.284	15948.020
600.413	16006.235
600.541	16102.275
600.669	16152.373
600.797	16041.569
600.925	16116.588
601.053	16124.157
601.181	16164.686
601.309	16090.118
601.438	16088.647
601.566	16144.706
601.694	16179.490
601.822	16374.471
601.950	16152.255
602.078	16246.333
602.206	16284.569
602.334	16268.255
602.463	16303.961
602.591	16380.098
602.719	16341.961
602.847	16545.392
602.975	16396.549
603.103	16441.588
603.231	16484.255
603.359	16412.098
603.488	16384.431
603.616	16438.235
603.744	16396.118
603.872	16461.314
604.000	16463.569
604.128	16514.275
604.256	16496.667
604.384	16478.902
604.513	16606.510
604.641	16597.627
604.769	16618.196
604.897	16526.098
605.025	16468.941
605.153	16502.510
605.281	16573.804
605.409	16468.431
605.538	16506.059
605.666	16519.098
605.794	16532.353
605.922	16543.843
606.050	16471.745
606.178	16464.392
606.306	16479.882
606.434	16553.294
606.563	16494.804
606.691	16542.902
606.819	16479.137
606.947	16478.137
607.075	16503.333
607.203	16423.235
607.331	16437.118
607.459	16460.588
607.588	16374.686
607.716	16408.922
607.844	16466.078
607.972	16428.196
608.100	16375.941
608.228	16385.686
608.356	16378.471
608.484	16411.804
608.613	16387.294
608.741	16328.137
608.869	16339.549
608.997	16411.980
609.125	16401.608
609.253	16316.373
609.381	16326.431
609.509	16257.314
609.638	16303.431
609.766	16253.961
609.894	16267.255
610.022	16220.706
610.150	16352.235
610.278	16242.922
610.406	16220.667
610.534	16262.000
610.663	16169.961
610.791	16273.765
610.919	16139.196
611.047	16223.216
611.175	16175.490
611.303	16215.451
611.431	16257.412
611.559	16245.569
611.688	16218.176
611.816	16165.000
611.944	16217.471
612.072	16172.922
612.200	16200.294
612.328	16273.902
612.456	16171.667
612.584	16370.843
612.713	16165.078
612.841	16200.255
612.969	16156.863
613.097	16210.608
613.225	16185.412
613.353	16208.392
613.481	16159.647
613.609	16213.039
613.738	16183.529
613.866	16313.804
613.994	16255.510
614.122	16246.000
614.250	16292.686
614.378	16310.686
614.506	16276.412
614.634	16337.235
614.763	16334.000
614.891	16342.941
615.019	16373.118
615.147	16419.196
615.275	16371.255
615.403	16463.922
615.531	16485.039
615.659	16545.882
615.788	16457.098
615.916	16584.961
616.044	16521.647
616.172	16642.529
616.300	16503.529
616.428	16623.706
616.556	16567.275
616.684	16577.529
616.813	16541.471
616.941	16602.980
617.069	16572.765
617.197	16775.608
617.325	16639.843
617.453	16680.255
617.581	16708.961
617.709	16608.078
617.838	16674.000
617.966	16736.020
618.094	16674.275
618.222	16687.745
618.350	16732.706
618.478	16613.647
618.606	16833.137
618.734	16730.471
618.863	16763.529
618.991	16711.549
619.119	16696.431
619.247	16688.706
619.375	16682.686
619.503	16734.608
619.631	16811.196
619.759	16635.294
619.888	16628.784
620.016	16681.686
620.144	16756.392
620.272	16647.314
620.400	16700.314
620.528	16723.314
620.656	16788.647
620.784	16664.098
620.913	16666.863
621.041	16704.216
621.169	16742.255
621.297	16638.216
621.425	16725.745
621.553	16744.627
621.681	16820.392
621.809	16776.275
621.938	16766.745
622.066	16895.627
622.194	16789.549
622.322	16866.412
622.450	16870.412
622.578	16859.392
622.706	16818.020
622.834	16913.098
622.963	16951.176
623.091	16943.686
623.219	16941.627
623.347	17030.176
623.475	16956.922
623.603	16995.941
623.731	16996.765
623.859	17084.235
623.988	17126.745
624.116	17135.392
624.244	17187.275
624.372	17153.196
624.500	17176.706
624.628	17215.784
624.756	17234.843
624.884	17333.137
625.013	17437.118
625.141	17318.235
625.269	17239.941
625.397	17437.725
625.525	17444.275
625.653	17283.647
625.781	17524.431
625.909	17309.471
626.038	17376.137
626.166	17367.784
626.294	17359.412
626.422	17362.020
626.550	17458.980
626.678	17473.824
626.806	17375.941
626.934	17466.647
627.063	17450.314
627.191	17493.255
627.319	17513.333
627.447	17508.098
627.575	17531.176
627.703	17504.216
627.831	17556.588
627.959	17447.216
628.088	17552.647
628.216	17577.392
628.344	17453.961
628.472	17543.569
628.600	17666.157
628.728	17409.922
628.856	17437.824
