spectrometer_0_40nm_hybrid_at_650.00nm_cut_at_1184.50Y_01.dat
02.05.2022
11:49:29
cut middle at Y: 1184.50
top cursor: 1210 down cursor: 1159 mean of: 51 lines , 2560 datapoints
wavelength(nm)	intensity[arb. units]
485.997	5453.216
486.125	4986.078
486.253	4909.157
486.381	4933.824
486.510	4963.882
486.638	5058.922
486.766	5053.608
486.894	5061.804
487.022	5094.588
487.150	5100.314
487.278	5146.725
487.406	5102.431
487.535	5167.176
487.663	5212.725
487.791	5178.098
487.919	5223.784
488.047	5192.176
488.175	5228.961
488.303	5247.784
488.431	5253.569
488.560	5275.431
488.688	5280.000
488.816	5275.471
488.944	5344.667
489.072	5359.118
489.200	5369.706
489.328	5410.608
489.456	5467.588
489.585	5431.980
489.713	5444.706
489.841	5479.706
489.969	5455.745
490.097	5490.824
490.225	5506.098
490.353	5605.510
490.481	5549.431
490.610	5568.118
490.738	5618.020
490.866	5672.745
490.994	5613.157
491.122	5692.392
491.250	5691.471
491.378	5725.765
491.506	5775.529
491.635	5725.490
491.763	5760.451
491.891	5760.314
492.019	5833.294
492.147	5787.353
492.275	5764.118
492.403	5774.490
492.531	5897.059
492.660	5867.980
492.788	5901.451
492.916	5928.843
493.044	5843.706
493.172	5931.784
493.300	5875.118
493.428	5916.333
493.556	5974.804
493.685	6030.196
493.813	6034.039
493.941	6049.098
494.069	6107.314
494.197	6114.000
494.325	6167.980
494.453	6331.843
494.581	6247.627
494.710	6274.667
494.838	6276.314
494.966	6378.294
495.094	6372.412
495.222	6463.941
495.350	6431.098
495.478	6494.784
495.606	6536.510
495.735	6515.294
495.863	6556.471
495.991	6573.882
496.119	6594.882
496.247	6625.157
496.375	6600.843
496.503	6641.529
496.631	6631.706
496.760	6578.608
496.888	6639.804
497.016	6638.961
497.144	6641.333
497.272	6623.608
497.400	6631.039
497.528	6634.569
497.656	6565.412
497.785	6532.667
497.913	6530.627
498.041	6510.216
498.169	6529.922
498.297	6492.157
498.425	6605.392
498.553	6492.549
498.681	6511.588
498.810	6533.765
498.938	6492.137
499.066	6511.941
499.194	6598.647
499.322	6584.451
499.450	6577.039
499.578	6577.569
499.706	6590.137
499.835	6600.431
499.963	6623.078
500.091	6664.706
500.219	6648.588
500.347	6670.686
500.475	6669.412
500.603	6711.176
500.731	6708.353
500.860	6771.196
500.988	6803.824
501.116	6796.059
501.244	6858.647
501.372	6916.824
501.500	6905.647
501.628	6948.000
501.756	6926.843
501.885	7000.098
502.013	6962.196
502.141	7061.882
502.269	7012.275
502.397	7132.686
502.525	7065.059
502.653	7121.431
502.781	7150.451
502.910	7137.314
503.038	7193.941
503.166	7174.451
503.294	7201.137
503.422	7169.373
503.550	7178.686
503.678	7207.922
503.806	7148.588
503.935	7212.647
504.063	7209.216
504.191	7220.686
504.319	7196.510
504.447	7213.804
504.575	7181.745
504.703	7235.765
504.831	7178.196
504.960	7126.039
505.088	7165.941
505.216	7236.020
505.344	7312.549
505.472	7217.490
505.600	7202.745
505.728	7346.824
505.856	7289.451
505.985	7278.216
506.113	7323.373
506.241	7347.275
506.369	7319.235
506.497	7281.353
506.625	7395.039
506.753	7376.020
506.881	7392.333
507.010	7384.667
507.138	7367.529
507.266	7428.569
507.394	7418.353
507.522	7498.608
507.650	7432.490
507.778	7470.098
507.906	7519.667
508.035	7524.431
508.163	7552.157
508.291	7557.000
508.419	7634.941
508.547	7618.471
508.675	7685.529
508.803	7591.137
508.931	7683.549
509.060	7690.510
509.188	7710.706
509.316	7717.392
509.444	7743.922
509.572	7849.216
509.700	7787.255
509.828	7837.235
509.956	7859.471
510.085	7831.647
510.213	7852.843
510.341	7871.294
510.469	7892.020
510.597	7943.490
510.725	7953.157
510.853	8047.824
510.981	8010.941
511.110	8027.392
511.238	8020.333
511.366	8045.216
511.494	8073.725
511.622	8095.059
511.750	8169.373
511.878	8207.275
512.006	8165.686
512.135	8201.059
512.263	8259.098
512.391	8294.647
512.519	8286.353
512.647	8284.294
512.775	8337.373
512.903	8373.039
513.031	8412.784
513.160	8365.549
513.288	8502.196
513.416	8413.431
513.544	8488.137
513.672	8421.314
513.800	8462.529
513.928	8450.765
514.056	8498.784
514.185	8465.373
514.313	8435.745
514.441	8550.412
514.569	8472.059
514.697	8497.098
514.825	8443.353
514.953	8508.941
515.081	8437.451
515.210	8481.667
515.338	8492.392
515.466	8422.961
515.594	8421.098
515.722	8381.843
515.850	8429.039
515.978	8372.314
516.106	8372.333
516.235	8385.980
516.363	8352.529
516.491	8388.765
516.619	8400.608
516.747	8463.196
516.875	8453.333
517.003	8438.039
517.131	8443.824
517.260	8395.314
517.388	8419.706
517.516	8534.647
517.644	8558.961
517.772	8590.647
517.900	8531.275
518.028	8610.137
518.156	8617.824
518.284	8597.824
518.413	8670.941
518.541	8733.961
518.669	8688.039
518.797	8792.863
518.925	8789.078
519.053	8773.529
519.181	8769.608
519.309	8812.451
519.438	8897.235
519.566	8889.137
519.694	8897.824
519.822	8960.490
519.950	8989.980
520.078	9028.137
520.206	9062.275
520.334	9088.235
520.463	9025.824
520.591	9065.373
520.719	9113.490
520.847	9132.824
520.975	9101.392
521.103	9205.373
521.231	9157.588
521.359	9287.569
521.488	9198.627
521.616	9244.863
521.744	9196.157
521.872	9247.020
522.000	9155.922
522.128	9153.431
522.256	9195.353
522.384	9205.706
522.513	9144.725
522.641	9161.020
522.769	9162.098
522.897	9226.490
523.025	9188.255
523.153	9160.235
523.281	9246.882
523.409	9177.745
523.538	9221.196
523.666	9183.863
523.794	9229.157
523.922	9218.745
524.050	9229.137
524.178	9247.745
524.306	9253.255
524.434	9283.725
524.563	9337.392
524.691	9481.706
524.819	9396.882
524.947	9451.922
525.075	9448.686
525.203	9485.608
525.331	9555.471
525.459	9690.569
525.588	9643.275
525.716	9732.588
525.844	9754.490
525.972	9829.627
526.100	9876.451
526.228	9937.725
526.356	9881.941
526.484	10048.039
526.613	9979.412
526.741	10087.216
526.869	10086.275
526.997	10199.118
527.125	10145.824
527.253	10171.529
527.381	10280.686
527.509	10259.118
527.638	10327.275
527.766	10414.059
527.894	10373.863
528.022	10487.843
528.150	10391.000
528.278	10485.745
528.406	10458.000
528.534	10481.863
528.663	10466.314
528.791	10566.216
528.919	10546.980
529.047	10630.216
529.175	10503.608
529.303	10542.471
529.431	10534.196
529.559	10589.020
529.688	10520.980
529.816	10551.451
529.944	10635.843
530.072	10557.275
530.200	10537.922
530.328	10579.961
530.456	10538.471
530.584	10520.529
530.713	10584.529
530.841	10557.725
530.969	10509.412
531.097	10547.686
531.225	10504.843
531.353	10644.314
531.481	10562.490
531.609	10724.784
531.738	10583.235
531.866	10656.216
531.994	10682.412
532.122	10773.216
532.250	10622.510
532.378	10618.804
532.506	10605.059
532.634	10627.392
532.763	10597.745
532.891	10631.765
533.019	10619.078
533.147	10614.725
533.275	10643.961
533.403	10695.275
533.531	10680.784
533.659	10677.902
533.788	10693.314
533.916	10705.549
534.044	10735.059
534.172	10806.235
534.300	10790.137
534.428	10758.961
534.556	10978.510
534.684	10834.373
534.813	10813.020
534.941	10811.824
535.069	10827.804
535.197	10800.902
535.325	10843.275
535.453	10821.412
535.581	10949.961
535.709	10865.667
535.838	10873.843
535.966	10903.549
536.094	10864.490
536.222	10953.373
536.350	10917.176
536.478	10900.980
536.606	10996.784
536.734	10954.686
536.863	10992.098
536.991	10996.294
537.119	11024.608
537.247	10975.137
537.375	11136.686
537.503	10994.451
537.631	10997.275
537.759	11065.118
537.888	11020.961
538.016	11219.176
538.144	11138.706
538.272	11084.804
538.400	11167.255
538.528	11072.882
538.656	11182.980
538.784	11170.118
538.913	11259.216
539.041	11222.824
539.169	11213.765
539.297	11270.608
539.425	11359.529
539.553	11303.275
539.681	11371.353
539.809	11379.157
539.938	11372.137
540.066	11425.745
540.194	11440.569
540.322	11575.157
540.450	11577.255
540.578	11541.314
540.706	11570.588
540.834	11627.902
540.963	11732.765
541.091	11679.725
541.219	11670.255
541.347	11797.471
541.475	11750.000
541.603	11775.941
541.731	11770.176
541.859	11793.333
541.988	11791.431
542.116	11964.039
542.244	11839.941
542.372	12009.078
542.500	11805.765
542.628	11952.020
542.756	11873.902
542.884	11901.392
543.013	11915.118
543.141	11991.647
543.269	11867.588
543.397	11814.118
543.525	11828.373
543.653	11914.137
543.781	11819.373
543.909	11812.118
544.038	11870.667
544.166	11833.255
544.294	11908.490
544.422	11723.667
544.550	11767.235
544.678	11759.745
544.806	11674.627
544.934	11653.000
545.063	11652.569
545.191	11747.412
545.319	11632.078
545.447	11542.510
545.575	11543.490
545.703	11520.608
545.831	11557.294
545.959	11507.588
546.088	11555.078
546.216	11470.745
546.344	11448.784
546.472	11646.588
546.600	11479.510
546.728	11443.765
546.856	11489.451
546.984	11497.784
547.113	11624.020
547.241	11594.020
547.369	11672.843
547.497	11619.941
547.625	11628.647
547.753	11683.157
547.881	11600.039
548.009	11615.196
548.138	11635.745
548.266	11590.373
548.394	11673.176
548.522	11587.588
548.650	11737.843
548.778	11681.431
548.906	11605.235
549.034	11714.039
549.163	11614.412
549.291	11616.745
549.419	11707.118
549.547	11955.627
549.675	11866.314
549.803	11943.804
549.931	11955.392
550.059	12080.961
550.188	12184.549
550.316	12236.255
550.444	12311.471
550.572	12298.294
550.700	12400.235
550.828	12524.000
550.956	12519.510
551.084	12607.824
551.213	12554.157
551.341	12641.510
551.469	12649.059
551.597	12709.745
551.725	12740.529
551.853	12744.157
551.981	12780.255
552.109	12748.765
552.238	12837.765
552.366	12795.588
552.494	12797.000
552.622	12789.549
552.750	12860.902
552.878	12822.176
553.006	12894.647
553.134	12886.588
553.263	12894.608
553.391	12914.961
553.519	13030.824
553.647	12940.529
553.775	12917.098
553.903	13076.137
554.031	13009.176
554.159	12934.961
554.288	12999.588
554.416	12986.863
554.544	13075.549
554.672	13034.882
554.800	13006.608
554.928	12980.490
555.056	12996.451
555.184	12981.314
555.313	12983.078
555.441	12958.451
555.569	12970.529
555.697	13061.353
555.825	12993.980
555.953	12966.588
556.081	12944.980
556.209	13006.275
556.338	13014.569
556.466	13147.922
556.594	13019.824
556.722	13037.510
556.850	13082.235
556.978	12936.863
557.106	12917.745
557.234	13007.882
557.363	13046.176
557.491	12984.059
557.619	12954.490
557.747	13014.843
557.875	12908.412
558.003	12999.137
558.131	12978.745
558.259	13006.471
558.388	12964.039
558.516	12981.196
558.644	12981.490
558.772	13023.451
558.900	12969.647
559.028	12941.667
559.156	12976.373
559.284	12985.941
559.413	12999.902
559.541	12983.431
559.669	13005.765
559.797	13085.706
559.925	12993.608
560.053	13050.627
560.181	12994.608
560.309	13034.196
560.438	12993.725
560.566	13029.294
560.694	12990.961
560.822	13143.686
560.950	13008.569
561.078	13015.529
561.206	13175.118
561.334	12996.902
561.463	12983.784
561.591	13094.588
561.719	12999.510
561.847	13011.843
561.975	12944.608
562.103	13009.275
562.231	13000.745
562.359	12899.255
562.488	13047.294
562.616	12986.392
562.744	13021.216
562.872	13038.725
563.000	12983.569
563.128	13011.137
563.256	13025.039
563.384	13182.471
563.513	13011.980
563.641	13075.490
563.769	13118.314
563.897	13101.549
564.025	13136.196
564.153	13095.843
564.281	13233.451
564.409	13166.686
564.538	13166.392
564.666	13234.824
564.794	13301.020
564.922	13269.667
565.050	13395.961
565.178	13257.686
565.306	13347.412
565.434	13315.137
565.563	13477.824
565.691	13368.902
565.819	13539.510
565.947	13369.804
566.075	13400.235
566.203	13450.333
566.331	13383.922
566.459	14159.118
566.588	13511.412
566.716	13494.216
566.844	13505.784
566.972	13541.804
567.100	13552.373
567.228	13638.471
567.356	13687.549
567.484	13616.569
567.613	13692.373
567.741	13738.471
567.869	13681.020
567.997	13704.941
568.125	13771.824
568.253	13919.000
568.381	13767.451
568.509	13819.059
568.638	13833.941
568.766	13871.078
568.894	13896.294
569.022	13827.412
569.150	13933.137
569.278	13855.647
569.406	14035.314
569.534	13967.765
569.663	13884.451
569.791	13891.608
569.919	13916.902
570.047	14115.118
570.175	13899.137
570.303	13913.588
570.431	13948.863
570.559	13971.255
570.688	14166.510
570.816	13988.961
570.944	14051.314
571.072	13943.118
571.200	13941.765
571.328	13983.784
571.456	14018.549
571.584	13980.941
571.713	13996.235
571.841	14005.569
571.969	14136.686
572.097	14130.314
572.225	13906.275
572.353	13960.020
572.481	13882.863
572.609	13954.059
572.738	13889.412
572.866	13851.804
572.994	13906.471
573.122	13851.373
573.250	13907.216
573.378	13893.765
573.506	13843.627
573.634	13916.627
573.763	13833.686
573.891	13856.941
574.019	13861.275
574.147	13797.647
574.275	13873.451
574.403	13851.020
574.531	13760.235
574.659	13766.941
574.788	13808.725
574.916	13957.294
575.044	13792.549
575.172	13792.941
575.300	13746.902
575.428	13714.392
575.556	13777.980
575.684	13807.961
575.813	13788.627
575.941	13809.255
576.069	13748.941
576.197	13848.980
576.325	13758.980
576.453	13839.314
576.581	13765.098
576.709	13772.843
576.838	13897.275
576.966	13990.098
577.094	14054.294
577.222	13950.902
577.350	13915.549
577.478	14056.431
577.606	14018.922
577.734	14075.804
577.863	14156.608
577.991	14214.078
578.119	14294.980
578.247	14287.980
578.375	14401.882
578.503	14366.902
578.631	14374.647
578.759	14407.157
578.888	14571.039
579.016	14372.686
579.144	14405.216
579.272	14418.137
579.400	14496.608
579.528	14488.980
579.656	14592.608
579.784	14466.863
579.913	14610.784
580.041	14758.824
580.169	14627.235
580.297	14738.431
580.425	14721.804
580.553	14765.529
580.681	14804.529
580.809	14803.078
580.938	14893.216
581.066	14970.020
581.194	14953.627
581.322	14990.824
581.450	15067.686
581.578	15133.922
581.706	15119.294
581.834	15130.020
581.963	15166.314
582.091	15127.804
582.219	15266.922
582.347	15283.490
582.475	15262.451
582.603	15334.725
582.731	15346.824
582.859	15328.333
582.988	15394.392
583.116	15392.020
583.244	15473.961
583.372	15492.667
583.500	15526.588
583.628	15589.373
583.756	15585.373
583.884	15573.137
584.013	15733.490
584.141	15607.078
584.269	15677.961
584.397	15765.863
584.525	15697.020
584.653	15796.451
584.781	15790.510
584.909	15785.451
585.038	15785.490
585.166	15780.333
585.294	15832.176
585.422	15798.235
585.550	15852.098
585.678	15809.667
585.806	15871.961
585.934	15837.529
586.063	15845.706
586.191	15836.706
586.319	15867.412
586.447	15837.647
586.575	15766.373
586.703	15856.118
586.831	15741.667
586.959	15822.196
587.088	15727.059
587.216	15730.314
587.344	15727.157
587.472	15859.471
587.600	15638.804
587.728	15645.784
587.856	15636.078
587.984	15661.980
588.113	15792.529
588.241	15756.549
588.369	15841.137
588.497	15758.118
588.625	15729.000
588.753	15912.412
588.881	15787.608
589.009	15799.510
589.138	15837.451
589.266	15770.667
589.394	15843.627
589.522	15853.059
589.650	15962.451
589.778	15935.176
589.906	16017.333
590.034	15941.157
590.163	15974.255
590.291	15989.118
590.419	15952.745
590.547	16001.490
590.675	16002.510
590.803	16002.216
590.931	15941.765
591.059	15921.176
591.188	15880.039
591.316	15862.647
591.444	15869.314
591.572	15883.510
591.700	15885.373
591.828	15901.529
591.956	15880.255
592.084	15901.353
592.213	15908.902
592.341	15886.118
592.469	15852.922
592.597	15807.412
592.725	15766.118
592.853	15800.529
592.981	15780.627
593.109	15787.902
593.238	15664.882
593.366	15638.255
593.494	15631.549
593.622	15628.667
593.750	15589.078
593.878	15568.686
594.006	15494.000
594.134	15529.588
594.263	15565.647
594.391	15397.510
594.519	15456.039
594.647	15432.510
594.775	15336.706
594.903	15317.627
595.031	15394.804
595.159	15278.569
595.288	15265.588
595.416	15231.824
595.544	15225.765
595.672	15129.118
595.800	15242.275
595.928	15089.961
596.056	15062.353
596.184	15020.784
596.313	15161.196
596.441	15037.255
596.569	15052.529
596.697	14931.667
596.825	14946.765
596.953	14901.980
597.081	14890.549
597.209	14854.627
597.338	14867.314
597.466	14837.863
597.594	14861.686
597.722	15031.784
597.850	14965.569
597.978	15014.804
598.106	15027.510
598.234	15033.137
598.363	14910.255
598.491	15098.196
598.619	14928.118
598.747	14970.961
598.875	15091.471
599.003	15064.941
599.131	15089.275
599.259	15122.333
599.388	15074.000
599.516	15134.941
599.644	15273.882
599.772	15286.000
599.900	15210.059
600.028	15195.451
600.156	15363.216
600.284	15196.980
600.413	15295.824
600.541	15355.118
600.669	15383.471
600.797	15309.549
600.925	15386.431
601.053	15407.667
601.181	15436.196
601.309	15367.275
601.438	15419.510
601.566	15355.980
601.694	15344.569
601.822	15538.157
601.950	15304.294
602.078	15322.784
602.206	15430.039
602.334	15357.020
602.463	15320.549
602.591	15348.490
602.719	15302.804
602.847	15486.922
602.975	15294.078
603.103	15320.078
603.231	15310.627
603.359	15327.137
603.488	15361.549
603.616	15280.765
603.744	15263.118
603.872	15277.745
604.000	15234.765
604.128	15288.706
604.256	15281.333
604.384	15282.176
604.513	15306.196
604.641	15337.353
604.769	15338.922
604.897	15244.078
605.025	15169.941
605.153	15221.431
605.281	15270.922
605.409	15150.529
605.538	15147.490
605.666	15157.922
605.794	15128.882
605.922	15177.314
606.050	15097.686
606.178	15113.176
606.306	15063.824
606.434	15114.039
606.563	15135.941
606.691	15039.412
606.819	15078.843
606.947	14988.157
607.075	15016.412
607.203	14953.176
607.331	14923.039
607.459	14963.627
607.588	14928.647
607.716	14946.569
607.844	14906.451
607.972	14966.314
608.100	14857.235
608.228	14825.059
608.356	14843.078
608.484	14804.745
608.613	14798.471
608.741	14712.863
608.869	14702.510
608.997	14768.745
609.125	14748.471
609.253	14694.686
609.381	14607.529
609.509	14596.137
609.638	14584.275
609.766	14569.824
609.894	14607.118
610.022	14514.490
610.150	14643.176
610.278	14479.373
610.406	14471.627
610.534	14463.353
610.663	14396.314
610.791	14543.686
610.919	14349.647
611.047	14386.216
611.175	14287.333
611.303	14254.549
611.431	14323.667
611.559	14280.471
611.688	14257.451
611.816	14211.510
611.944	14228.020
612.072	14163.706
612.200	14190.843
612.328	14250.980
612.456	14123.412
612.584	14333.176
612.713	14164.863
612.841	14160.922
612.969	14132.490
613.097	14134.941
613.225	14097.863
613.353	14103.020
613.481	14111.902
613.609	14077.392
613.738	14031.510
613.866	14102.392
613.994	14090.490
614.122	14046.000
614.250	14009.902
614.378	14047.980
614.506	14034.471
614.634	14055.569
614.763	14057.118
614.891	14030.902
615.019	14056.314
615.147	14060.922
615.275	14005.255
615.403	14050.039
615.531	13997.196
615.659	14034.843
615.788	13950.569
615.916	14053.176
616.044	13953.647
616.172	14125.882
616.300	13939.510
616.428	14046.804
616.556	13916.961
616.684	13913.980
616.813	13938.745
616.941	13918.706
617.069	13901.902
617.197	14118.667
617.325	13974.255
617.453	13950.686
617.581	13954.569
617.709	13892.314
617.838	13953.569
617.966	13965.314
618.094	13949.529
618.222	14012.824
618.350	14013.235
618.478	13979.980
618.606	14097.333
618.734	14047.353
618.863	14092.725
618.991	14031.471
619.119	14125.863
619.247	14066.608
619.375	14131.686
619.503	14159.078
619.631	14242.549
619.759	14111.118
619.888	14163.235
620.016	14222.725
620.144	14236.941
620.272	14147.882
620.400	14218.157
620.528	14177.549
620.656	14331.078
620.784	14247.275
620.913	14244.765
621.041	14313.569
621.169	14335.627
621.297	14263.039
621.425	14350.314
621.553	14297.020
621.681	14388.667
621.809	14387.922
621.938	14328.824
622.066	14371.490
622.194	14265.157
622.322	14370.902
622.450	14366.118
622.578	14326.765
622.706	14320.549
622.834	14356.569
622.963	14344.059
623.091	14366.490
623.219	14359.216
623.347	14427.196
623.475	14410.980
623.603	14356.373
623.731	14384.804
623.859	14399.412
623.988	14432.333
624.116	14411.451
624.244	14498.667
624.372	14443.686
624.500	14450.431
624.628	14517.392
624.756	14529.667
624.884	14574.392
625.013	14691.255
625.141	14543.510
625.269	14492.373
625.397	14603.098
625.525	14659.098
625.653	14463.216
625.781	14611.373
625.909	14506.980
626.038	14541.745
626.166	14486.667
626.294	14454.020
626.422	14534.255
626.550	14519.745
626.678	14526.725
626.806	14540.333
626.934	14618.118
627.063	14611.667
627.191	14585.922
627.319	14627.216
627.447	14577.235
627.575	14633.902
627.703	14607.412
627.831	14669.157
627.959	14634.725
628.088	14741.863
628.216	14785.294
628.344	14669.529
628.472	14703.078
628.600	14814.314
628.728	14666.902
628.856	14608.275
