spectrometer_90_referenz_at_650.00nm_cut_at_1184.50Y_01.dat
02.05.2022
11:30:13
cut middle at Y: 1184.50
top cursor: 1210 down cursor: 1159 mean of: 51 lines , 2560 datapoints
wavelength(nm)	intensity[arb. units]
485.997	6859.686
486.125	6246.255
486.253	6074.627
486.381	6090.118
486.510	6125.627
486.638	6216.000
486.766	6208.608
486.894	6225.235
487.022	6299.941
487.150	6285.980
487.278	6282.569
487.406	6320.922
487.535	6377.059
487.663	6378.118
487.791	6376.510
487.919	6405.078
488.047	6396.627
488.175	6462.314
488.303	6468.333
488.431	6513.157
488.560	6547.412
488.688	6561.059
488.816	6560.843
488.944	6627.667
489.072	6649.471
489.200	6672.569
489.328	6671.392
489.456	6718.078
489.585	6722.392
489.713	6734.392
489.841	6651.647
489.969	6719.039
490.097	6735.667
490.225	6720.098
490.353	6779.471
490.481	6749.373
490.610	6757.020
490.738	6727.686
490.866	6831.980
490.994	6738.196
491.122	6817.294
491.250	6796.941
491.378	6782.667
491.506	6857.000
491.635	6806.353
491.763	6806.314
491.891	6828.941
492.019	6873.765
492.147	6797.843
492.275	6803.980
492.403	6831.216
492.531	6963.725
492.660	6922.451
492.788	6915.255
492.916	6955.863
493.044	6868.804
493.172	6922.059
493.300	6966.647
493.428	6965.784
493.556	7001.059
493.685	7016.196
493.813	7056.235
493.941	7107.529
494.069	7107.314
494.197	7141.549
494.325	7160.882
494.453	7329.647
494.581	7257.275
494.710	7280.627
494.838	7310.725
494.966	7391.667
495.094	7324.961
495.222	7417.118
495.350	7439.431
495.478	7481.843
495.606	7508.804
495.735	7510.510
495.863	7531.196
495.991	7567.039
496.119	7614.059
496.247	7670.902
496.375	7619.020
496.503	7593.706
496.631	7658.451
496.760	7595.275
496.888	7638.588
497.016	7620.000
497.144	7639.059
497.272	7632.922
497.400	7632.118
497.528	7623.020
497.656	7629.294
497.785	7618.098
497.913	7603.471
498.041	7625.098
498.169	7633.882
498.297	7594.314
498.425	7724.843
498.553	7593.020
498.681	7615.765
498.810	7692.784
498.938	7595.882
499.066	7662.373
499.194	7731.863
499.322	7667.059
499.450	7645.157
499.578	7635.373
499.706	7682.490
499.835	7703.176
499.963	7705.392
500.091	7724.373
500.219	7728.333
500.347	7803.824
500.475	7791.451
500.603	7760.549
500.731	7772.569
500.860	7831.353
500.988	7911.608
501.116	7846.922
501.244	7918.706
501.372	7945.216
501.500	7956.020
501.628	8019.353
501.756	7975.255
501.885	8040.255
502.013	7989.412
502.141	8098.039
502.269	8070.882
502.397	8223.039
502.525	8138.725
502.653	8227.294
502.781	8232.451
502.910	8227.275
503.038	8271.843
503.166	8255.020
503.294	8273.275
503.422	8285.294
503.550	8330.392
503.678	8332.588
503.806	8318.059
503.935	8327.039
504.063	8367.647
504.191	8368.431
504.319	8338.412
504.447	8324.863
504.575	8333.725
504.703	8426.549
504.831	8347.373
504.960	8329.529
505.088	8375.157
505.216	8424.961
505.344	8532.039
505.472	8398.667
505.600	8378.294
505.728	8494.118
505.856	8415.412
505.985	8445.039
506.113	8444.490
506.241	8468.549
506.369	8467.353
506.497	8441.627
506.625	8538.902
506.753	8488.647
506.881	8551.804
507.010	8538.608
507.138	8548.373
507.266	8643.941
507.394	8593.235
507.522	8715.235
507.650	8624.000
507.778	8714.980
507.906	8739.000
508.035	8737.333
508.163	8782.294
508.291	8811.157
508.419	8839.706
508.547	8863.078
508.675	8903.765
508.803	8872.137
508.931	8901.098
509.060	8935.686
509.188	8942.020
509.316	8931.922
509.444	8920.843
509.572	9125.686
509.700	8984.235
509.828	9024.137
509.956	9049.882
510.085	9038.569
510.213	9064.392
510.341	9025.451
510.469	9097.176
510.597	9131.686
510.725	9059.961
510.853	9161.980
510.981	9129.608
511.110	9141.765
511.238	9118.490
511.366	9141.902
511.494	9202.157
511.622	9164.725
511.750	9181.471
511.878	9228.941
512.006	9211.314
512.135	9240.863
512.263	9253.882
512.391	9249.333
512.519	9265.098
512.647	9234.961
512.775	9282.020
512.903	9275.784
513.031	9326.824
513.160	9292.020
513.288	9391.882
513.416	9331.882
513.544	9293.471
513.672	9310.765
513.800	9318.706
513.928	9335.412
514.056	9348.412
514.185	9324.471
514.313	9287.804
514.441	9416.294
514.569	9345.510
514.697	9314.510
514.825	9286.706
514.953	9298.314
515.081	9270.176
515.210	9312.667
515.338	9345.667
515.466	9236.373
515.594	9299.824
515.722	9245.961
515.850	9314.490
515.978	9206.176
516.106	9244.980
516.235	9226.333
516.363	9277.608
516.491	9287.078
516.619	9309.039
516.747	9360.627
516.875	9306.824
517.003	9279.157
517.131	9328.569
517.260	9306.882
517.388	9305.196
517.516	9347.431
517.644	9378.275
517.772	9434.490
517.900	9432.392
518.028	9441.510
518.156	9456.529
518.284	9453.490
518.413	9508.471
518.541	9578.686
518.669	9539.922
518.797	9623.373
518.925	9613.608
519.053	9623.490
519.181	9660.157
519.309	9665.118
519.438	9749.471
519.566	9769.333
519.694	9732.373
519.822	9817.059
519.950	9835.451
520.078	9851.373
520.206	9900.608
520.334	9934.333
520.463	9930.118
520.591	9921.843
520.719	9914.098
520.847	9982.137
520.975	9945.294
521.103	9972.353
521.231	9909.725
521.359	10106.902
521.488	10008.059
521.616	10049.275
521.744	10011.588
521.872	10042.510
522.000	9915.627
522.128	9914.686
522.256	9919.020
522.384	9878.824
522.513	9891.706
522.641	9891.314
522.769	9939.686
522.897	9932.020
523.025	9883.059
523.153	9799.176
523.281	9838.255
523.409	9786.902
523.538	9823.137
523.666	9776.294
523.794	9825.216
523.922	9796.275
524.050	9782.176
524.178	9756.157
524.306	9752.118
524.434	9814.412
524.563	9835.412
524.691	9991.137
524.819	9877.000
524.947	9881.961
525.075	9879.882
525.203	9898.373
525.331	9997.627
525.459	10050.333
525.588	10006.392
525.716	10070.745
525.844	10103.137
525.972	10182.902
526.100	10112.843
526.228	10253.588
526.356	10194.196
526.484	10256.373
526.613	10244.431
526.741	10305.039
526.869	10314.216
526.997	10396.118
527.125	10448.333
527.253	10456.020
527.381	10545.784
527.509	10524.706
527.638	10568.961
527.766	10657.078
527.894	10653.549
528.022	10768.745
528.150	10721.059
528.278	10840.745
528.406	10829.157
528.534	10829.922
528.663	10883.725
528.791	10930.922
528.919	10891.294
529.047	11010.451
529.175	10846.824
529.303	10902.843
529.431	10871.490
529.559	10943.196
529.688	10925.608
529.816	10929.412
529.944	11072.824
530.072	10958.118
530.200	10962.882
530.328	10994.216
530.456	11002.569
530.584	10981.569
530.713	11020.843
530.841	11014.902
530.969	11012.176
531.097	11059.196
531.225	11015.451
531.353	11122.196
531.481	11040.902
531.609	11193.667
531.738	11052.137
531.866	11102.098
531.994	11112.275
532.122	11199.745
532.250	11067.059
532.378	11034.627
532.506	10980.922
532.634	11002.784
532.763	10955.647
532.891	10999.333
533.019	10980.137
533.147	10980.196
533.275	10958.569
533.403	11016.196
533.531	11010.941
533.659	10998.490
533.788	11011.000
533.916	10991.294
534.044	11017.725
534.172	11082.510
534.300	11055.353
534.428	11011.922
534.556	11205.235
534.684	11039.941
534.813	11015.431
534.941	11043.490
535.069	11004.196
535.197	11029.588
535.325	11017.765
535.453	11022.098
535.581	11061.157
535.709	10976.451
535.838	11018.569
535.966	11028.216
536.094	11035.216
536.222	11106.373
536.350	11070.451
536.478	11070.961
536.606	11125.373
536.734	11098.765
536.863	11063.373
536.991	11143.275
537.119	11180.784
537.247	11116.647
537.375	11288.176
537.503	11126.647
537.631	11142.843
537.759	11136.804
537.888	11146.627
538.016	11369.294
538.144	11254.078
538.272	11191.490
538.400	11292.843
538.528	11236.549
538.656	11300.176
538.784	11306.961
538.913	11450.804
539.041	11345.137
539.169	11365.706
539.297	11340.157
539.425	11487.569
539.553	11474.314
539.681	11549.686
539.809	11558.902
539.938	11528.059
540.066	11535.294
540.194	11610.686
540.322	11726.275
540.450	11728.824
540.578	11665.529
540.706	11760.020
540.834	11787.471
540.963	11891.490
541.091	11787.706
541.219	11829.235
541.347	11920.922
541.475	11919.392
541.603	11907.647
541.731	11944.216
541.859	11931.196
541.988	11945.275
542.116	12110.510
542.244	11967.980
542.372	12115.941
542.500	12007.863
542.628	12095.725
542.756	12005.412
542.884	12049.980
543.013	12077.902
543.141	12100.902
543.269	12081.333
543.397	12048.608
543.525	12056.000
543.653	12105.882
543.781	12008.471
543.909	12047.529
544.038	12147.922
544.166	12137.902
544.294	12191.314
544.422	12023.627
544.550	12113.863
544.678	12133.706
544.806	12047.392
544.934	11995.255
545.063	12047.765
545.191	12216.451
545.319	12082.804
545.447	11977.765
545.575	11986.020
545.703	12053.137
545.831	11983.627
545.959	11935.176
546.088	11936.353
546.216	11951.275
546.344	12004.431
546.472	12135.627
546.600	11978.686
546.728	11952.137
546.856	12035.020
546.984	11999.961
547.113	12094.941
547.241	12073.314
547.369	12158.980
547.497	12118.000
547.625	12167.255
547.753	12085.510
547.881	12044.647
548.009	12005.882
548.138	12048.843
548.266	12013.706
548.394	12077.216
548.522	11939.020
548.650	12072.078
548.778	12015.353
548.906	11874.765
549.034	11969.235
549.163	11864.510
549.291	11831.098
549.419	11892.529
549.547	12122.765
549.675	12047.588
549.803	12117.275
549.931	12156.059
550.059	12210.118
550.188	12310.471
550.316	12387.549
550.444	12417.255
550.572	12512.000
550.700	12535.961
550.828	12670.078
550.956	12667.000
551.084	12793.549
551.213	12727.216
551.341	12825.706
551.469	12818.647
551.597	12895.882
551.725	12893.314
551.853	12914.078
551.981	12931.157
552.109	12909.941
552.238	13039.216
552.366	12971.588
552.494	12928.745
552.622	12957.980
552.750	13005.784
552.878	13028.431
553.006	13085.608
553.134	13070.608
553.263	13027.549
553.391	13079.157
553.519	13237.275
553.647	13101.176
553.775	13094.863
553.903	13220.216
554.031	13160.745
554.159	13157.000
554.288	13237.706
554.416	13198.294
554.544	13248.804
554.672	13219.431
554.800	13209.275
554.928	13152.275
555.056	13168.000
555.184	13172.980
555.313	13166.902
555.441	13161.000
555.569	13139.824
555.697	13211.196
555.825	13206.412
555.953	13222.745
556.081	13192.294
556.209	13253.078
556.338	13297.667
556.466	13444.118
556.594	13242.667
556.722	13314.235
556.850	13338.902
556.978	13187.059
557.106	13256.882
557.234	13259.863
557.363	13409.902
557.491	13345.373
557.619	13322.667
557.747	13378.333
557.875	13393.078
558.003	13434.667
558.131	13457.725
558.259	13424.588
558.388	13434.784
558.516	13483.941
558.644	13493.569
558.772	13592.882
558.900	13522.471
559.028	13514.863
559.156	13552.137
559.284	13514.333
559.413	13560.647
559.541	13607.294
559.669	13630.647
559.797	13699.667
559.925	13652.647
560.053	13788.725
560.181	13658.412
560.309	13771.902
560.438	13778.059
560.566	13794.078
560.694	13745.314
560.822	13968.176
560.950	13813.647
561.078	13820.706
561.206	14038.078
561.334	13827.255
561.463	13799.843
561.591	13931.020
561.719	13840.314
561.847	13856.490
561.975	13857.373
562.103	13870.824
562.231	13932.784
562.359	13819.020
562.488	13912.824
562.616	13920.863
562.744	13938.039
562.872	13930.706
563.000	13873.941
563.128	13863.490
563.256	13839.000
563.384	14007.137
563.513	13840.529
563.641	13889.118
563.769	13942.412
563.897	13834.882
564.025	13883.843
564.153	13920.745
564.281	14009.706
564.409	13907.569
564.538	13892.392
564.666	13981.314
564.794	14023.686
564.922	14022.627
565.050	14130.176
565.178	14043.098
565.306	14125.059
565.434	14129.980
565.563	14314.294
565.691	14156.392
565.819	14358.216
565.947	14190.804
566.075	14246.020
566.203	14316.000
566.331	14264.275
566.459	15154.843
566.588	14401.569
566.716	14404.706
566.844	14429.608
566.972	14537.980
567.100	14660.549
567.228	14685.745
567.356	14761.784
567.484	14729.373
567.613	14861.255
567.741	14865.059
567.869	14857.588
567.997	14858.627
568.125	15002.686
568.253	15074.588
568.381	15012.431
568.509	15074.471
568.638	15042.588
568.766	15183.549
568.894	15120.157
569.022	15195.784
569.150	15232.745
569.278	15220.686
569.406	15342.824
569.534	15363.725
569.663	15284.941
569.791	15357.725
569.919	15442.529
570.047	15603.529
570.175	15477.627
570.303	15454.745
570.431	15465.451
570.559	15528.902
570.688	15679.588
570.816	15560.627
570.944	15586.647
571.072	15516.922
571.200	15511.314
571.328	15591.490
571.456	15647.098
571.584	15608.098
571.713	15561.588
571.841	15656.980
571.969	15738.392
572.097	15711.529
572.225	15527.176
572.353	15609.255
572.481	15567.765
572.609	15536.627
572.738	15491.510
572.866	15438.549
572.994	15501.863
573.122	15496.392
573.250	15481.255
573.378	15463.941
573.506	15459.216
573.634	15448.588
573.763	15407.000
573.891	15401.216
574.019	15400.980
574.147	15308.588
574.275	15374.255
574.403	15404.392
574.531	15285.216
574.659	15273.137
574.788	15327.961
574.916	15398.000
575.044	15256.667
575.172	15294.118
575.300	15228.392
575.428	15193.686
575.556	15189.098
575.684	15209.039
575.813	15140.373
575.941	15178.000
576.069	15096.118
576.197	15142.294
576.325	15088.941
576.453	15092.843
576.581	15096.078
576.709	15020.922
576.838	15024.333
576.966	15120.824
577.094	15220.490
577.222	15062.078
577.350	15009.549
577.478	15155.588
577.606	15136.059
577.734	15133.137
577.863	15149.863
577.991	15220.922
578.119	15352.549
578.247	15318.314
578.375	15388.667
578.503	15348.765
578.631	15400.216
578.759	15481.039
578.888	15607.549
579.016	15413.216
579.144	15497.627
579.272	15515.216
579.400	15506.333
579.528	15616.627
579.656	15682.843
579.784	15627.235
579.913	15678.529
580.041	15868.784
580.169	15743.686
580.297	15823.824
580.425	15848.784
580.553	15827.922
580.681	15886.804
580.809	15956.039
580.938	15935.020
581.066	16046.353
581.194	16015.314
581.322	16014.098
581.450	16102.000
581.578	16125.059
581.706	16141.294
581.834	16171.529
581.963	16174.922
582.091	16198.451
582.219	16243.706
582.347	16274.216
582.475	16221.235
582.603	16288.490
582.731	16409.059
582.859	16340.157
582.988	16367.039
583.116	16420.020
583.244	16446.824
583.372	16463.275
583.500	16480.471
583.628	16530.569
583.756	16534.647
583.884	16517.863
584.013	16600.902
584.141	16580.569
584.269	16626.569
584.397	16687.843
584.525	16616.745
584.653	16746.196
584.781	16736.039
584.909	16749.157
585.038	16740.275
585.166	16746.451
585.294	16834.588
585.422	16838.510
585.550	16802.098
585.678	16748.255
585.806	16838.235
585.934	16816.490
586.063	16820.843
586.191	16829.000
586.319	16892.922
586.447	16840.216
586.575	16839.882
586.703	16891.627
586.831	16858.588
586.959	16950.490
587.088	16853.804
587.216	16883.549
587.344	16899.294
587.472	17071.627
587.600	16843.039
587.728	16854.392
587.856	16829.078
587.984	16882.294
588.113	16925.667
588.241	16932.314
588.369	17009.333
588.497	16976.020
588.625	16944.373
588.753	17190.098
588.881	17054.353
589.009	17009.216
589.138	17024.490
589.266	17009.294
589.394	17077.412
589.522	17087.627
589.650	17193.941
589.778	17085.961
589.906	17180.686
590.034	17099.255
590.163	17184.118
590.291	17243.824
590.419	17165.490
590.547	17298.059
590.675	17323.235
590.803	17346.294
590.931	17328.137
591.059	17303.863
591.188	17372.686
591.316	17305.706
591.444	17362.196
591.572	17392.098
591.700	17353.784
591.828	17391.431
591.956	17384.039
592.084	17415.745
592.213	17398.078
592.341	17360.569
592.469	17450.471
592.597	17434.706
592.725	17389.647
592.853	17471.922
592.981	17475.804
593.109	17474.922
593.238	17364.706
593.366	17365.451
593.494	17359.902
593.622	17357.392
593.750	17345.471
593.878	17388.216
594.006	17348.922
594.134	17306.804
594.263	17436.118
594.391	17337.353
594.519	17345.824
594.647	17349.353
594.775	17369.137
594.903	17400.549
595.031	17440.314
595.159	17402.412
595.288	17460.549
595.416	17415.353
595.544	17432.431
595.672	17251.373
595.800	17439.569
595.928	17322.510
596.056	17276.392
596.184	17268.902
596.313	17468.863
596.441	17294.255
596.569	17308.216
596.697	17186.902
596.825	17179.392
596.953	17207.569
597.081	17253.157
597.209	17227.745
597.338	17301.941
597.466	17308.922
597.594	17268.882
597.722	17447.706
597.850	17319.804
597.978	17362.118
598.106	17475.255
598.234	17371.961
598.363	17379.020
598.491	17512.490
598.619	17429.039
598.747	17431.725
598.875	17553.157
599.003	17544.922
599.131	17614.078
599.259	17574.196
599.388	17621.569
599.516	17716.451
599.644	17796.765
599.772	17808.980
599.900	17725.471
600.028	17724.725
600.156	17829.314
600.284	17783.235
600.413	17931.314
600.541	17968.333
600.669	18069.078
600.797	18017.725
600.925	18122.078
601.053	18125.333
601.181	18130.294
601.309	18048.569
601.438	18105.490
601.566	18102.863
601.694	18198.157
601.822	18400.667
601.950	18215.333
602.078	18264.412
602.206	18330.118
602.334	18267.216
602.463	18354.608
602.591	18454.471
602.719	18393.176
602.847	18595.824
602.975	18478.980
603.103	18538.039
603.231	18590.922
603.359	18557.745
603.488	18553.863
603.616	18561.471
603.744	18566.000
603.872	18598.529
604.000	18608.804
604.128	18581.882
604.256	18613.059
604.384	18614.784
604.513	18742.333
604.641	18750.118
604.769	18755.176
604.897	18704.686
605.025	18692.667
605.153	18706.196
605.281	18750.725
605.409	18678.765
605.538	18682.745
605.666	18733.314
605.794	18739.314
605.922	18751.980
606.050	18666.706
606.178	18770.588
606.306	18740.686
606.434	18835.471
606.563	18776.784
606.691	18827.627
606.819	18829.510
606.947	18782.176
607.075	18803.922
607.203	18742.333
607.331	18773.353
607.459	18756.765
607.588	18817.745
607.716	18838.647
607.844	18879.706
607.972	18860.020
608.100	18756.902
608.228	18742.176
608.356	18768.510
608.484	18707.059
608.613	18730.902
608.741	18720.373
608.869	18752.275
608.997	18796.588
609.125	18802.667
609.253	18722.118
609.381	18727.176
609.509	18633.824
609.638	18674.686
609.766	18681.882
609.894	18729.314
610.022	18630.490
610.150	18757.529
610.278	18683.980
610.406	18690.647
610.534	18667.627
610.663	18646.510
610.791	18791.059
610.919	18700.157
611.047	18706.451
611.175	18665.706
611.303	18710.353
611.431	18782.608
611.559	18765.745
611.688	18745.863
611.816	18695.961
611.944	18772.608
612.072	18768.059
612.200	18793.490
612.328	18828.529
612.456	18742.784
612.584	18933.157
612.713	18821.392
612.841	18902.549
612.969	18805.745
613.097	18827.725
613.225	18796.745
613.353	18842.373
613.481	18869.059
613.609	18918.490
613.738	18894.627
613.866	18979.510
613.994	18975.078
614.122	19016.961
614.250	18983.471
614.378	19035.294
614.506	18992.471
614.634	19076.863
614.763	18993.941
614.891	19081.412
615.019	19096.059
615.147	19098.373
615.275	19106.902
615.403	19211.608
615.531	19164.765
615.659	19234.725
615.788	19235.157
615.916	19391.902
616.044	19317.196
616.172	19494.000
616.300	19305.314
616.428	19491.902
616.556	19461.216
616.684	19492.863
616.813	19472.000
616.941	19463.333
617.069	19482.255
617.197	19736.255
617.325	19602.059
617.453	19655.059
617.581	19639.216
617.709	19665.412
617.838	19693.353
617.966	19717.863
618.094	19698.863
618.222	19757.333
618.350	19736.431
618.478	19713.314
618.606	19770.647
618.734	19747.529
618.863	19797.667
618.991	19740.784
619.119	19885.882
619.247	19762.431
619.375	19765.863
619.503	19849.647
619.631	19882.216
619.759	19767.686
619.888	19814.706
620.016	19905.000
620.144	19932.510
620.272	19879.569
620.400	19934.745
620.528	19941.294
620.656	19987.059
620.784	19963.549
620.913	19916.333
621.041	19983.980
621.169	20022.961
621.297	19939.196
621.425	19961.000
621.553	20012.216
621.681	20107.157
621.809	20082.804
621.938	20091.667
622.066	20247.176
622.194	20189.706
622.322	20171.471
622.450	20187.627
622.578	20218.824
622.706	20251.020
622.834	20276.745
622.963	20292.941
623.091	20284.824
623.219	20419.451
623.347	20491.373
623.475	20435.157
623.603	20478.961
623.731	20533.373
623.859	20553.745
623.988	20626.118
624.116	20610.627
624.244	20728.118
624.372	20719.020
624.500	20777.471
624.628	20774.275
624.756	20843.922
624.884	20963.275
625.013	21095.961
625.141	20949.353
625.269	20950.902
625.397	21091.667
625.525	21168.863
625.653	20977.020
625.781	21172.647
625.909	21087.765
626.038	21158.804
626.166	21108.843
626.294	21210.882
626.422	21175.647
626.550	21313.608
626.678	21300.039
626.806	21262.882
626.934	21375.745
627.063	21322.412
627.191	21432.627
627.319	21375.627
627.447	21466.392
627.575	21445.863
627.703	21450.980
627.831	21532.471
627.959	21449.451
628.088	21584.529
628.216	21593.745
628.344	21468.765
628.472	21487.000
628.600	21633.157
628.728	21453.020
628.856	21460.059
