spectrometer_90_100nm_einzel_at_650.00nm_cut_at_1184.50Y_01.dat
02.05.2022
11:39:00
cut middle at Y: 1184.50
top cursor: 1210 down cursor: 1159 mean of: 51 lines , 2560 datapoints
wavelength(nm)	intensity[arb. units]
485.997	6271.216
486.125	5719.608
486.253	5601.922
486.381	5589.804
486.510	5608.137
486.638	5702.412
486.766	5687.314
486.894	5728.863
487.022	5765.451
487.150	5753.294
487.278	5805.961
487.406	5782.608
487.535	5841.294
487.663	5883.588
487.791	5868.431
487.919	5922.647
488.047	5911.059
488.175	5950.000
488.303	5959.412
488.431	5970.235
488.560	5995.412
488.688	6055.843
488.816	6033.627
488.944	6103.804
489.072	6106.765
489.200	6123.431
489.328	6171.078
489.456	6175.804
489.585	6158.490
489.713	6152.804
489.841	6151.569
489.969	6156.118
490.097	6163.627
490.225	6160.882
490.353	6245.980
490.481	6203.569
490.610	6229.686
490.738	6218.647
490.866	6319.333
490.994	6216.980
491.122	6280.353
491.250	6241.000
491.378	6244.588
491.506	6330.137
491.635	6288.490
491.763	6295.490
491.891	6263.412
492.019	6349.373
492.147	6303.412
492.275	6279.431
492.403	6266.824
492.531	6450.118
492.660	6363.765
492.788	6372.725
492.916	6386.373
493.044	6345.863
493.172	6409.784
493.300	6389.176
493.428	6398.804
493.556	6434.412
493.685	6480.255
493.813	6506.804
493.941	6523.569
494.069	6553.137
494.197	6563.333
494.325	6599.686
494.453	6753.333
494.581	6653.431
494.710	6697.647
494.838	6709.941
494.966	6796.176
495.094	6771.059
495.222	6850.882
495.350	6839.725
495.478	6862.804
495.606	6901.000
495.735	6934.294
495.863	6940.294
495.991	6936.490
496.119	6979.667
496.247	7033.608
496.375	6981.314
496.503	7000.510
496.631	7007.431
496.760	7015.745
496.888	7035.412
497.016	7018.608
497.144	7045.863
497.272	7016.275
497.400	7038.490
497.528	7018.216
497.656	7038.294
497.785	6980.196
497.913	6979.529
498.041	7006.980
498.169	7036.020
498.297	6990.000
498.425	7137.608
498.553	7027.275
498.681	7016.020
498.810	7085.059
498.938	7030.627
499.066	7022.922
499.194	7111.588
499.322	7029.216
499.450	7002.157
499.578	7013.431
499.706	7053.333
499.835	7092.137
499.963	7091.745
500.091	7132.549
500.219	7112.078
500.347	7137.118
500.475	7137.745
500.603	7180.529
500.731	7202.216
500.860	7192.314
500.988	7247.098
501.116	7234.510
501.244	7285.098
501.372	7346.922
501.500	7331.510
501.628	7369.118
501.756	7371.373
501.885	7441.863
502.013	7403.020
502.141	7429.490
502.269	7429.824
502.397	7546.922
502.525	7507.902
502.653	7584.000
502.781	7537.294
502.910	7582.922
503.038	7645.314
503.166	7613.745
503.294	7644.922
503.422	7649.255
503.550	7630.196
503.678	7671.569
503.806	7687.510
503.935	7693.235
504.063	7720.549
504.191	7747.255
504.319	7715.922
504.447	7685.902
504.575	7712.235
504.703	7728.804
504.831	7643.549
504.960	7633.784
505.088	7672.490
505.216	7718.882
505.344	7818.510
505.472	7732.765
505.600	7692.843
505.728	7803.490
505.856	7750.608
505.985	7782.196
506.113	7806.333
506.241	7820.647
506.369	7782.333
506.497	7790.863
506.625	7852.706
506.753	7844.078
506.881	7913.098
507.010	7866.980
507.138	7872.510
507.266	7978.157
507.394	7904.510
507.522	8007.098
507.650	7988.980
507.778	8005.510
507.906	8078.549
508.035	8045.745
508.163	8083.667
508.291	8113.784
508.419	8167.824
508.547	8194.510
508.675	8228.255
508.803	8140.843
508.931	8238.608
509.060	8206.686
509.188	8227.137
509.316	8241.392
509.444	8255.333
509.572	8399.863
509.700	8292.078
509.828	8352.471
509.956	8346.020
510.085	8312.196
510.213	8326.196
510.341	8279.333
510.469	8379.039
510.597	8378.216
510.725	8363.863
510.853	8442.078
510.981	8444.549
511.110	8437.608
511.238	8431.000
511.366	8470.314
511.494	8442.882
511.622	8429.373
511.750	8477.471
511.878	8488.608
512.006	8468.804
512.135	8494.000
512.263	8510.392
512.391	8526.725
512.519	8504.157
512.647	8491.333
512.775	8508.667
512.903	8546.941
513.031	8564.078
513.160	8553.020
513.288	8621.000
513.416	8534.176
513.544	8563.686
513.672	8547.765
513.800	8559.804
513.928	8570.098
514.056	8643.294
514.185	8591.157
514.313	8537.078
514.441	8640.706
514.569	8602.588
514.697	8587.176
514.825	8551.059
514.953	8577.373
515.081	8521.824
515.210	8577.020
515.338	8633.196
515.466	8528.039
515.594	8534.490
515.722	8530.686
515.850	8548.725
515.978	8474.569
516.106	8491.216
516.235	8480.824
516.363	8469.078
516.491	8501.647
516.619	8507.471
516.747	8586.843
516.875	8525.569
517.003	8496.725
517.131	8574.196
517.260	8536.392
517.388	8590.451
517.516	8552.588
517.644	8614.686
517.772	8719.863
517.900	8669.725
518.028	8698.020
518.156	8734.353
518.284	8703.843
518.413	8722.608
518.541	8829.059
518.669	8779.588
518.797	8810.373
518.925	8836.588
519.053	8888.824
519.181	8886.216
519.309	8911.255
519.438	8966.137
519.566	9001.000
519.694	8951.451
519.822	9062.490
519.950	9079.216
520.078	9065.078
520.206	9150.843
520.334	9171.039
520.463	9109.706
520.591	9141.686
520.719	9151.627
520.847	9206.824
520.975	9146.451
521.103	9230.784
521.231	9159.765
521.359	9325.706
521.488	9161.137
521.616	9235.647
521.744	9124.569
521.872	9225.255
522.000	9131.373
522.128	9095.667
522.256	9087.294
522.384	9107.157
522.513	9104.059
522.641	9080.392
522.769	9124.745
522.897	9094.196
523.025	9060.000
523.153	9011.843
523.281	9061.059
523.409	9005.451
523.538	9024.000
523.666	8994.039
523.794	9024.941
523.922	9002.667
524.050	8996.824
524.178	8970.627
524.306	9014.314
524.434	9060.745
524.563	9058.039
524.691	9170.020
524.819	9024.373
524.947	9051.078
525.075	9076.824
525.203	9085.686
525.331	9141.157
525.459	9202.059
525.588	9193.922
525.716	9267.980
525.844	9267.843
525.972	9303.529
526.100	9297.314
526.228	9356.725
526.356	9351.569
526.484	9448.941
526.613	9413.569
526.741	9525.588
526.869	9524.667
526.997	9579.549
527.125	9579.686
527.253	9539.922
527.381	9642.627
527.509	9605.686
527.638	9756.569
527.766	9775.667
527.894	9776.647
528.022	9890.235
528.150	9858.235
528.278	9976.235
528.406	9910.784
528.534	9898.255
528.663	9890.176
528.791	10010.627
528.919	9965.569
529.047	10100.843
529.175	9965.196
529.303	9981.255
529.431	9931.196
529.559	10037.980
529.688	9965.412
529.816	10041.255
529.944	10091.255
530.072	10054.176
530.200	10061.667
530.328	10028.686
530.456	10093.275
530.584	10054.078
530.713	10093.804
530.841	10108.647
530.969	10094.706
531.097	10101.098
531.225	10098.824
531.353	10190.706
531.481	10085.294
531.609	10230.020
531.738	10070.569
531.866	10200.824
531.994	10171.529
532.122	10259.255
532.250	10156.510
532.378	10093.941
532.506	10096.216
532.634	10094.353
532.763	10034.706
532.891	10069.471
533.019	10087.922
533.147	10032.627
533.275	10031.922
533.403	10123.784
533.531	10093.059
533.659	10079.608
533.788	10120.176
533.916	10047.157
534.044	10096.392
534.172	10135.824
534.300	10114.588
534.428	10082.784
534.556	10274.373
534.684	10136.902
534.813	10140.392
534.941	10040.157
535.069	10104.275
535.197	10068.941
535.325	10099.275
535.453	10096.098
535.581	10151.098
535.709	10066.745
535.838	10103.490
535.966	10096.118
536.094	10157.333
536.222	10162.804
536.350	10143.510
536.478	10134.059
536.606	10187.765
536.734	10175.373
536.863	10188.588
536.991	10229.235
537.119	10239.216
537.247	10195.235
537.375	10352.078
537.503	10185.765
537.631	10214.353
537.759	10232.804
537.888	10206.039
538.016	10410.020
538.144	10328.196
538.272	10251.529
538.400	10305.255
538.528	10242.157
538.656	10343.784
538.784	10305.941
538.913	10438.804
539.041	10361.725
539.169	10364.431
539.297	10399.569
539.425	10465.235
539.553	10452.333
539.681	10534.039
539.809	10530.725
539.938	10553.706
540.066	10530.588
540.194	10571.765
540.322	10696.275
540.450	10722.451
540.578	10618.490
540.706	10710.431
540.834	10730.196
540.963	10856.275
541.091	10796.412
541.219	10821.000
541.347	10886.471
541.475	10846.157
541.603	10846.235
541.731	10882.137
541.859	10828.020
541.988	10890.294
542.116	11086.098
542.244	10970.608
542.372	11100.176
542.500	10955.824
542.628	11060.961
542.756	11011.216
542.884	10972.804
543.013	11001.431
543.141	11053.863
543.269	11012.725
543.397	10986.980
543.525	11008.902
543.653	11093.784
543.781	10984.510
543.909	10967.157
544.038	11067.725
544.166	11070.333
544.294	11127.216
544.422	10932.451
544.550	10996.196
544.678	11043.980
544.806	10963.510
544.934	10955.902
545.063	10962.118
545.191	11103.333
545.319	10947.980
545.447	10868.314
545.575	10890.490
545.703	10962.098
545.831	10934.353
545.959	10850.039
546.088	10904.941
546.216	10853.941
546.344	10883.765
546.472	11074.941
546.600	10880.137
546.728	10937.333
546.856	10892.196
546.984	10903.980
547.113	11021.922
547.241	10995.490
547.369	11069.922
547.497	11031.118
547.625	11006.941
547.753	11004.902
547.881	10958.275
548.009	10953.686
548.138	10945.608
548.266	10897.490
548.394	11011.686
548.522	10845.804
548.650	10998.922
548.778	10877.431
548.906	10862.922
549.034	10868.235
549.163	10794.314
549.291	10749.706
549.419	10832.000
549.547	11053.588
549.675	10936.549
549.803	11008.020
549.931	11050.961
550.059	11128.451
550.188	11178.216
550.316	11235.216
550.444	11322.902
550.572	11331.961
550.700	11432.412
550.828	11459.412
550.956	11487.000
551.084	11605.471
551.213	11545.529
551.341	11684.235
551.469	11668.627
551.597	11680.647
551.725	11727.961
551.853	11707.745
551.981	11745.235
552.109	11707.392
552.238	11775.039
552.366	11762.843
552.494	11749.863
552.622	11764.667
552.750	11839.686
552.878	11778.137
553.006	11836.667
553.134	11842.627
553.263	11823.863
553.391	11826.569
553.519	12024.059
553.647	11870.725
553.775	11842.392
553.903	12008.902
554.031	11947.176
554.159	11891.529
554.288	11961.843
554.416	11950.294
554.544	11987.451
554.672	11934.118
554.800	11984.647
554.928	11939.314
555.056	11891.020
555.184	11935.333
555.313	11962.333
555.441	11913.235
555.569	11953.255
555.697	12000.725
555.825	11966.588
555.953	11996.627
556.081	11946.373
556.209	11995.647
556.338	12033.255
556.466	12124.196
556.594	11965.118
556.722	12076.471
556.850	12110.549
556.978	11949.471
557.106	12031.784
557.234	12011.902
557.363	12083.529
557.491	12092.294
557.619	12092.569
557.747	12124.510
557.875	12042.745
558.003	12114.373
558.131	12133.176
558.259	12171.706
558.388	12159.392
558.516	12226.392
558.644	12166.196
558.772	12252.667
558.900	12159.392
559.028	12264.176
559.156	12268.804
559.284	12250.059
559.413	12241.765
559.541	12328.255
559.669	12325.725
559.797	12389.118
559.925	12349.667
560.053	12445.725
560.181	12404.569
560.309	12454.627
560.438	12459.882
560.566	12420.275
560.694	12418.137
560.822	12609.765
560.950	12472.549
561.078	12461.784
561.206	12604.922
561.334	12461.529
561.463	12452.549
561.591	12551.333
561.719	12535.843
561.847	12538.608
561.975	12460.471
562.103	12538.902
562.231	12527.020
562.359	12435.196
562.488	12559.078
562.616	12521.647
562.744	12554.941
562.872	12585.216
563.000	12500.667
563.128	12534.765
563.256	12526.098
563.384	12663.431
563.513	12535.765
563.641	12489.373
563.769	12570.314
563.897	12525.549
564.025	12516.039
564.153	12531.922
564.281	12610.588
564.409	12559.059
564.538	12579.078
564.666	12580.039
564.794	12638.451
564.922	12585.471
565.050	12699.588
565.178	12644.431
565.306	12666.686
565.434	12720.392
565.563	12900.706
565.691	12764.137
565.819	12940.216
565.947	12742.020
566.075	12815.627
566.203	12874.471
566.331	12880.961
566.459	13769.784
566.588	12939.294
566.716	12975.510
566.844	13001.431
566.972	13102.647
567.100	13115.647
567.228	13157.157
567.356	13289.647
567.484	13222.941
567.613	13356.922
567.741	13379.902
567.869	13397.137
567.997	13386.902
568.125	13457.549
568.253	13600.510
568.381	13499.588
568.509	13591.137
568.638	13559.765
568.766	13616.706
568.894	13641.373
569.022	13622.765
569.150	13742.353
569.278	13693.706
569.406	13830.431
569.534	13815.137
569.663	13843.824
569.791	13817.804
569.919	13855.431
570.047	13943.294
570.175	13843.706
570.303	13836.647
570.431	13794.804
570.559	13907.431
570.688	14053.627
570.816	13848.431
570.944	13963.176
571.072	13901.608
571.200	13912.078
571.328	13944.608
571.456	13998.373
571.584	13973.941
571.713	13984.608
571.841	13996.765
571.969	14088.824
572.097	14108.843
572.225	13930.941
572.353	13965.353
572.481	13863.843
572.609	13991.745
572.738	13947.745
572.866	13885.725
572.994	13875.706
573.122	13827.922
573.250	13862.353
573.378	13821.588
573.506	13835.118
573.634	13854.373
573.763	13738.490
573.891	13773.431
574.019	13781.588
574.147	13650.137
574.275	13712.608
574.403	13743.137
574.531	13653.157
574.659	13656.549
574.788	13641.000
574.916	13782.255
575.044	13692.686
575.172	13655.098
575.300	13581.176
575.428	13565.196
575.556	13539.941
575.684	13555.373
575.813	13496.235
575.941	13566.000
576.069	13479.784
576.197	13554.471
576.325	13476.176
576.453	13415.216
576.581	13406.020
576.709	13407.529
576.838	13403.569
576.966	13522.588
577.094	13575.843
577.222	13499.588
577.350	13417.902
577.478	13503.549
577.606	13456.843
577.734	13498.039
577.863	13505.294
577.991	13605.549
578.119	13642.804
578.247	13670.000
578.375	13736.059
578.503	13645.255
578.631	13719.039
578.759	13709.412
578.888	13954.804
579.016	13712.824
579.144	13760.039
579.272	13781.059
579.400	13823.353
579.528	13852.745
579.656	13989.490
579.784	13868.588
579.913	13933.451
580.041	14146.863
580.169	14013.765
580.297	14083.255
580.425	14113.275
580.553	14150.765
580.681	14110.431
580.809	14096.569
580.938	14169.157
581.066	14278.804
581.194	14253.412
581.322	14222.608
581.450	14344.961
581.578	14302.098
581.706	14302.843
581.834	14389.569
581.963	14342.863
582.091	14312.490
582.219	14348.765
582.347	14412.373
582.475	14412.804
582.603	14429.647
582.731	14568.882
582.859	14452.235
582.988	14454.569
583.116	14534.961
583.244	14528.490
583.372	14556.294
583.500	14570.235
583.628	14624.353
583.756	14654.706
583.884	14661.294
584.013	14695.843
584.141	14661.588
584.269	14716.902
584.397	14732.843
584.525	14727.451
584.653	14782.020
584.781	14837.667
584.909	14862.647
585.038	14796.745
585.166	14862.863
585.294	14887.824
585.422	14871.882
585.550	14876.922
585.678	14844.549
585.806	14946.784
585.934	14877.255
586.063	14963.000
586.191	14874.255
586.319	14898.373
586.447	14923.706
586.575	14877.471
586.703	14992.294
586.831	14922.118
586.959	14982.373
587.088	14908.490
587.216	14933.176
587.344	14924.549
587.472	15078.490
587.600	14905.137
587.728	14922.451
587.856	14843.373
587.984	14899.137
588.113	14941.059
588.241	14965.333
588.369	14942.882
588.497	15004.451
588.625	15014.706
588.753	15199.412
588.881	15002.608
589.009	15048.020
589.138	15073.451
589.266	15037.392
589.394	15055.922
589.522	15052.255
589.650	15160.824
589.778	15120.824
589.906	15193.765
590.034	15126.294
590.163	15080.647
590.291	15198.471
590.419	15148.392
590.547	15225.765
590.675	15276.490
590.803	15216.392
590.931	15272.980
591.059	15231.255
591.188	15220.137
591.316	15243.078
591.444	15286.608
591.572	15311.490
591.700	15208.294
591.828	15257.255
591.956	15302.843
592.084	15333.353
592.213	15306.627
592.341	15270.667
592.469	15293.647
592.597	15305.627
592.725	15263.078
592.853	15316.039
592.981	15357.039
593.109	15381.294
593.238	15294.549
593.366	15267.706
593.494	15282.000
593.622	15314.118
593.750	15292.000
593.878	15381.490
594.006	15278.098
594.134	15289.863
594.263	15356.529
594.391	15203.235
594.519	15247.490
594.647	15276.000
594.775	15198.412
594.903	15250.078
595.031	15245.373
595.159	15256.353
595.288	15276.392
595.416	15283.373
595.544	15239.529
595.672	15148.373
595.800	15252.392
595.928	15204.373
596.056	15164.000
596.184	15087.196
596.313	15272.431
596.441	15153.843
596.569	15155.608
596.697	15092.235
596.825	14987.686
596.953	15021.176
597.081	15063.941
597.209	14985.157
597.338	15033.902
597.466	15061.961
597.594	14988.882
597.722	15151.020
597.850	15108.000
597.978	15162.059
598.106	15248.627
598.234	15219.882
598.363	15153.706
598.491	15313.490
598.619	15203.392
598.747	15161.431
598.875	15379.824
599.003	15273.490
599.131	15365.588
599.259	15346.157
599.388	15323.000
599.516	15392.706
599.644	15480.471
599.772	15560.078
599.900	15411.373
600.028	15479.353
600.156	15595.039
600.284	15520.039
600.413	15550.529
600.541	15601.353
600.669	15743.784
600.797	15690.294
600.925	15726.510
601.053	15774.961
601.181	15788.980
601.309	15746.549
601.438	15732.686
601.566	15760.902
601.694	15804.725
601.822	16037.941
601.950	15791.765
602.078	15820.431
602.206	15923.039
602.334	15905.235
602.463	15883.373
602.591	16022.549
602.719	15958.922
602.847	16191.745
602.975	16026.686
603.103	16062.137
603.231	16028.020
603.359	16066.510
603.488	16090.863
603.616	16053.725
603.744	16078.451
603.872	16097.216
604.000	16127.667
604.128	16140.588
604.256	16152.980
604.384	16173.588
604.513	16248.843
604.641	16239.196
604.769	16342.922
604.897	16200.118
605.025	16078.882
605.153	16171.235
605.281	16247.745
605.409	16151.078
605.538	16104.510
605.666	16166.196
605.794	16077.314
605.922	16161.235
606.050	16132.627
606.178	16193.020
606.306	16142.529
606.434	16185.627
606.563	16212.804
606.691	16259.078
606.819	16250.863
606.947	16182.510
607.075	16218.039
607.203	16168.157
607.331	16188.412
607.459	16180.294
607.588	16177.353
607.716	16249.980
607.844	16244.804
607.972	16198.804
608.100	16084.098
608.228	16189.373
608.356	16172.255
608.484	16115.490
608.613	16145.392
608.741	16057.529
608.869	16106.843
608.997	16180.686
609.125	16152.118
609.253	16075.392
609.381	16109.176
609.509	16045.275
609.638	16164.333
609.766	16064.333
609.894	16110.471
610.022	16035.922
610.150	16140.647
610.278	15978.765
610.406	16042.255
610.534	16074.039
610.663	15997.902
610.791	16065.059
610.919	15940.725
611.047	16049.020
611.175	15979.353
611.303	15994.235
611.431	15997.725
611.559	16057.647
611.688	15962.588
611.816	15935.059
611.944	15998.745
612.072	16005.804
612.200	16049.353
612.328	16046.804
612.456	15984.275
612.584	16158.000
612.713	16030.020
612.841	16097.412
612.969	16025.412
613.097	16057.804
613.225	16007.078
613.353	16098.431
613.481	15994.725
613.609	16082.059
613.738	16035.392
613.866	16075.314
613.994	16144.510
614.122	16135.176
614.250	16095.706
614.378	16177.431
614.506	16196.314
614.634	16216.549
614.763	16207.157
614.891	16185.314
615.019	16245.843
615.147	16281.569
615.275	16231.843
615.403	16266.196
615.531	16254.608
615.659	16328.569
615.788	16312.078
615.916	16453.333
616.044	16414.961
616.172	16526.275
616.300	16399.941
616.428	16546.843
616.556	16463.627
616.684	16500.863
616.813	16489.431
616.941	16490.373
617.069	16488.608
617.197	16767.941
617.325	16594.745
617.453	16584.000
617.581	16639.039
617.709	16531.824
617.838	16600.745
617.966	16595.745
618.094	16576.118
618.222	16574.647
618.350	16590.157
618.478	16582.569
618.606	16714.882
618.734	16659.765
618.863	16665.608
618.991	16590.529
619.119	16739.569
619.247	16604.471
619.375	16658.059
619.503	16707.667
619.631	16754.863
619.759	16562.059
619.888	16586.667
620.016	16675.745
620.144	16736.078
620.272	16561.235
620.400	16687.020
620.528	16701.941
620.656	16746.098
620.784	16702.098
620.913	16683.745
621.041	16684.843
621.169	16761.196
621.297	16738.039
621.425	16685.412
621.553	16738.098
621.681	16785.098
621.809	16791.451
621.938	16738.235
622.066	16854.157
622.194	16849.294
622.322	16837.627
622.450	16856.667
622.578	16823.804
622.706	16887.706
622.834	16868.784
622.963	16940.412
623.091	16967.078
623.219	17008.529
623.347	17009.549
623.475	16991.588
623.603	17024.627
623.731	17039.098
623.859	17066.118
623.988	17023.549
624.116	17070.882
624.244	17174.922
624.372	17211.235
624.500	17188.745
624.628	17241.529
624.756	17293.039
624.884	17401.216
625.013	17519.804
625.141	17403.588
625.269	17344.137
625.397	17450.922
625.525	17563.667
625.653	17415.667
625.781	17550.255
625.909	17434.804
626.038	17485.569
626.166	17496.882
626.294	17439.451
626.422	17515.922
626.550	17581.627
626.678	17539.059
626.806	17476.078
626.934	17590.745
627.063	17522.588
627.191	17586.333
627.319	17574.333
627.447	17508.294
627.575	17602.137
627.703	17558.137
627.831	17642.275
627.959	17617.843
628.088	17726.941
628.216	17652.843
628.344	17571.549
628.472	17599.569
628.600	17818.627
628.728	17488.216
628.856	17535.176
628.984	17450.373
