spectrometer_0_30nm_hybrid_at_650.00nm_cut_at_1184.50Y_01.dat
02.05.2022
11:47:46
cut middle at Y: 1184.50
top cursor: 1210 down cursor: 1159 mean of: 51 lines , 2560 datapoints
wavelength(nm)	intensity[arb. units]
485.997	5198.529
486.125	4755.686
486.253	4677.765
486.381	4687.588
486.510	4746.745
486.638	4809.412
486.766	4818.216
486.894	4846.137
487.022	4868.961
487.150	4871.431
487.278	4896.529
487.406	4901.961
487.535	4894.196
487.663	4978.804
487.791	4923.020
487.919	4951.118
488.047	4948.627
488.175	4993.549
488.303	5023.373
488.431	5044.412
488.560	5074.745
488.688	5080.882
488.816	5072.059
488.944	5093.627
489.072	5111.569
489.200	5149.647
489.328	5155.059
489.456	5252.176
489.585	5181.137
489.713	5215.333
489.841	5179.137
489.969	5223.588
490.097	5247.941
490.225	5265.961
490.353	5349.373
490.481	5305.569
490.610	5333.216
490.738	5381.098
490.866	5416.961
490.994	5383.353
491.122	5426.863
491.250	5427.863
491.378	5445.745
491.506	5567.961
491.635	5489.745
491.763	5463.725
491.891	5491.039
492.019	5598.843
492.147	5511.412
492.275	5547.686
492.403	5526.588
492.531	5681.333
492.660	5614.314
492.788	5626.510
492.916	5673.196
493.044	5582.176
493.172	5672.294
493.300	5665.176
493.428	5676.157
493.556	5715.196
493.685	5759.118
493.813	5760.667
493.941	5796.392
494.069	5839.627
494.197	5883.176
494.325	5898.255
494.453	6071.706
494.581	5994.196
494.710	6037.471
494.838	6076.431
494.966	6115.451
495.094	6090.294
495.222	6187.627
495.350	6176.922
495.478	6229.431
495.606	6253.824
495.735	6274.275
495.863	6312.588
495.991	6344.529
496.119	6310.882
496.247	6389.529
496.375	6353.627
496.503	6369.529
496.631	6406.588
496.760	6365.647
496.888	6375.294
497.016	6371.804
497.144	6350.078
497.272	6346.176
497.400	6338.961
497.528	6313.333
497.656	6291.216
497.785	6297.627
497.913	6250.471
498.041	6224.490
498.169	6260.333
498.297	6200.902
498.425	6374.353
498.553	6253.098
498.681	6243.451
498.810	6320.235
498.938	6248.176
499.066	6278.608
499.194	6322.608
499.322	6329.922
499.450	6321.980
499.578	6308.922
499.706	6366.510
499.835	6345.333
499.963	6349.961
500.091	6401.216
500.219	6404.078
500.347	6394.706
500.475	6423.118
500.603	6464.627
500.731	6470.804
500.860	6485.627
500.988	6556.647
501.116	6525.824
501.244	6592.235
501.372	6619.333
501.500	6647.686
501.628	6643.373
501.756	6696.843
501.885	6743.627
502.013	6694.020
502.141	6759.706
502.269	6754.137
502.397	6874.059
502.525	6789.725
502.653	6899.196
502.781	6825.725
502.910	6855.333
503.038	6882.392
503.166	6903.471
503.294	6898.235
503.422	6928.176
503.550	6911.118
503.678	6902.961
503.806	6931.137
503.935	6938.020
504.063	6941.333
504.191	6912.392
504.319	6909.863
504.447	6894.196
504.575	6933.510
504.703	6935.941
504.831	6875.980
504.960	6916.176
505.088	6924.941
505.216	6953.549
505.344	7056.431
505.472	6997.941
505.600	6951.196
505.728	7052.529
505.856	7001.431
505.985	7055.471
506.113	7027.431
506.241	7064.529
506.369	7034.118
506.497	7033.118
506.625	7124.863
506.753	7101.588
506.881	7126.216
507.010	7120.490
507.138	7105.412
507.266	7192.627
507.394	7118.098
507.522	7215.412
507.650	7188.627
507.778	7209.157
507.906	7268.431
508.035	7237.333
508.163	7287.922
508.291	7251.275
508.419	7369.471
508.547	7392.627
508.675	7425.725
508.803	7369.333
508.931	7394.451
509.060	7413.412
509.188	7432.686
509.316	7426.216
509.444	7467.706
509.572	7612.686
509.700	7525.118
509.828	7601.882
509.956	7598.569
510.085	7582.196
510.213	7620.392
510.341	7561.863
510.469	7651.412
510.597	7701.176
510.725	7668.686
510.853	7783.608
510.981	7752.902
511.110	7714.059
511.238	7725.941
511.366	7818.020
511.494	7847.569
511.622	7834.569
511.750	7904.902
511.878	7913.000
512.006	7895.961
512.135	7953.137
512.263	7947.529
512.391	8020.000
512.519	8041.843
512.647	8030.196
512.775	8100.373
512.903	8063.392
513.031	8092.824
513.160	8062.471
513.288	8222.745
513.416	8149.922
513.544	8172.353
513.672	8123.275
513.800	8188.176
513.928	8168.647
514.056	8252.667
514.185	8191.961
514.313	8199.686
514.441	8296.902
514.569	8211.902
514.697	8155.314
514.825	8144.745
514.953	8216.157
515.081	8151.294
515.210	8156.922
515.338	8265.392
515.466	8093.980
515.594	8171.020
515.722	8159.824
515.850	8143.235
515.978	8096.078
516.106	8115.882
516.235	8105.451
516.363	8118.314
516.491	8122.863
516.619	8144.824
516.747	8192.235
516.875	8163.510
517.003	8157.784
517.131	8179.529
517.260	8139.588
517.388	8220.451
517.516	8214.392
517.644	8249.078
517.772	8305.235
517.900	8285.529
518.028	8372.314
518.156	8386.745
518.284	8404.902
518.413	8393.098
518.541	8435.392
518.669	8458.137
518.797	8518.431
518.925	8459.216
519.053	8563.098
519.181	8509.039
519.309	8547.667
519.438	8614.843
519.566	8624.078
519.694	8622.451
519.822	8704.902
519.950	8709.275
520.078	8767.196
520.206	8788.745
520.334	8808.804
520.463	8801.196
520.591	8854.059
520.719	8850.314
520.847	8860.118
520.975	8837.804
521.103	8962.745
521.231	8879.569
521.359	9006.431
521.488	8939.725
521.616	8963.667
521.744	8891.118
521.872	8980.549
522.000	8920.373
522.128	8882.529
522.256	8922.353
522.384	8926.098
522.513	8903.412
522.641	8915.392
522.769	8952.725
522.897	9001.784
523.025	8940.020
523.153	8932.824
523.281	9026.078
523.409	8946.706
523.538	8984.863
523.666	8911.902
523.794	9015.020
523.922	8995.392
524.050	8974.569
524.178	9019.784
524.306	9009.255
524.434	9099.686
524.563	9132.706
524.691	9271.902
524.819	9143.118
524.947	9168.039
525.075	9183.176
525.203	9238.235
525.331	9304.255
525.459	9443.647
525.588	9404.235
525.716	9496.118
525.844	9503.373
525.972	9552.451
526.100	9565.804
526.228	9668.510
526.356	9648.765
526.484	9755.784
526.613	9738.039
526.741	9847.510
526.869	9845.941
526.997	9916.863
527.125	9916.392
527.253	9948.137
527.381	10024.863
527.509	10020.882
527.638	10068.000
527.766	10154.941
527.894	10130.824
528.022	10166.294
528.150	10126.235
528.278	10247.137
528.406	10225.353
528.534	10218.471
528.663	10246.686
528.791	10379.725
528.919	10315.196
529.047	10413.882
529.175	10270.745
529.303	10302.314
529.431	10325.157
529.559	10379.294
529.688	10283.255
529.816	10283.137
529.944	10398.902
530.072	10330.235
530.200	10299.373
530.328	10293.039
530.456	10323.471
530.584	10299.020
530.713	10364.765
530.841	10340.569
530.969	10318.922
531.097	10286.216
531.225	10305.588
531.353	10400.863
531.481	10318.608
531.609	10447.569
531.738	10342.157
531.866	10475.922
531.994	10378.647
532.122	10511.098
532.250	10385.000
532.378	10376.725
532.506	10411.922
532.634	10427.804
532.763	10327.569
532.891	10399.412
533.019	10405.980
533.147	10400.275
533.275	10433.941
533.403	10472.804
533.531	10468.314
533.659	10501.980
533.788	10470.588
533.916	10437.627
534.044	10553.039
534.172	10558.392
534.300	10593.333
534.428	10560.490
534.556	10767.863
534.684	10640.647
534.813	10588.333
534.941	10575.235
535.069	10631.863
535.197	10606.843
535.325	10632.118
535.453	10629.118
535.581	10739.157
535.709	10650.451
535.838	10719.451
535.966	10726.118
536.094	10744.118
536.222	10715.078
536.350	10745.216
536.478	10721.961
536.606	10763.745
536.734	10789.882
536.863	10825.059
536.991	10835.294
537.119	10833.843
537.247	10831.882
537.375	10985.471
537.503	10823.176
537.631	10860.275
537.759	10844.824
537.888	10814.824
538.016	11031.353
538.144	11009.392
538.272	10889.902
538.400	10973.275
538.528	10903.549
538.656	11002.529
538.784	10994.451
538.913	11100.314
539.041	11033.353
539.169	11042.392
539.297	11042.020
539.425	11152.353
539.553	11175.627
539.681	11161.980
539.809	11179.020
539.938	11162.373
540.066	11229.824
540.194	11273.686
540.322	11379.784
540.450	11368.608
540.578	11347.294
540.706	11432.039
540.834	11448.922
540.963	11591.725
541.091	11443.588
541.219	11533.627
541.347	11634.667
541.475	11597.980
541.603	11630.039
541.731	11645.529
541.859	11680.059
541.988	11707.176
542.116	11860.510
542.244	11775.431
542.372	11891.824
542.500	11735.471
542.628	11810.941
542.756	11745.314
542.884	11757.333
543.013	11727.922
543.141	11791.627
543.269	11739.608
543.397	11669.667
543.525	11729.588
543.653	11840.353
543.781	11762.314
543.909	11711.922
544.038	11743.137
544.166	11720.686
544.294	11755.451
544.422	11574.510
544.550	11670.725
544.678	11670.706
544.806	11588.882
544.934	11562.020
545.063	11612.000
545.191	11633.667
545.319	11559.725
545.447	11393.176
545.575	11482.471
545.703	11502.706
545.831	11482.039
545.959	11374.588
546.088	11373.412
546.216	11356.333
546.344	11423.039
546.472	11552.098
546.600	11383.745
546.728	11379.137
546.856	11419.098
546.984	11429.373
547.113	11568.078
547.241	11544.922
547.369	11606.275
547.497	11598.667
547.625	11556.824
547.753	11562.843
547.881	11563.157
548.009	11516.686
548.138	11592.471
548.266	11517.314
548.394	11657.686
548.522	11503.745
548.650	11693.020
548.778	11605.804
548.906	11501.039
549.034	11607.922
549.163	11540.706
549.291	11573.902
549.419	11620.941
549.547	11928.196
549.675	11840.882
549.803	11896.745
549.931	11947.863
550.059	12019.667
550.188	12176.902
550.316	12208.863
550.444	12296.608
550.572	12309.176
550.700	12406.843
550.828	12499.686
550.956	12477.196
551.084	12587.333
551.213	12558.216
551.341	12593.647
551.469	12617.490
551.597	12707.529
551.725	12754.255
551.853	12717.255
551.981	12790.451
552.109	12735.078
552.238	12796.196
552.366	12772.686
552.494	12791.765
552.622	12767.706
552.750	12796.902
552.878	12811.922
553.006	12940.863
553.134	12919.745
553.263	12870.078
553.391	12933.137
553.519	13075.353
553.647	12940.922
553.775	12958.039
553.903	13047.157
554.031	12959.412
554.159	13004.824
554.288	13019.333
554.416	13044.510
554.544	13160.608
554.672	13010.314
554.800	13038.745
554.928	13057.588
555.056	13066.020
555.184	13034.373
555.313	13064.667
555.441	13018.294
555.569	13051.882
555.697	13053.471
555.825	13019.882
555.953	13057.078
556.081	13058.843
556.209	13114.275
556.338	13094.157
556.466	13253.471
556.594	13078.804
556.722	13134.059
556.850	13179.314
556.978	13031.294
557.106	13109.647
557.234	13098.176
557.363	13123.882
557.491	13120.353
557.619	13125.882
557.747	13126.824
557.875	13099.725
558.003	13124.020
558.131	13177.412
558.259	13105.863
558.388	13092.725
558.516	13133.804
558.644	13101.510
558.772	13204.235
558.900	13131.961
559.028	13118.961
559.156	13090.647
559.284	13073.725
559.413	13101.549
559.541	13069.118
559.669	13131.196
559.797	13186.176
559.925	13106.078
560.053	13186.922
560.181	13119.392
560.309	13162.784
560.438	13190.431
560.566	13237.725
560.694	13170.765
560.822	13340.451
560.950	13177.882
561.078	13145.922
561.206	13301.843
561.334	13111.490
561.463	13144.922
561.591	13221.078
561.719	13169.588
561.847	13208.353
561.975	13119.412
562.103	13182.784
562.231	13266.882
562.359	13130.902
562.488	13288.784
562.616	13255.510
562.744	13225.608
562.872	13222.824
563.000	13163.255
563.128	13196.275
563.256	13225.039
563.384	13367.314
563.513	13230.373
563.641	13279.118
563.769	13372.490
563.897	13307.196
564.025	13324.902
564.153	13367.098
564.281	13457.431
564.409	13414.569
564.538	13364.020
564.666	13446.059
564.794	13453.157
564.922	13502.549
565.050	13589.157
565.178	13514.706
565.306	13628.843
565.434	13611.235
565.563	13757.608
565.691	13668.471
565.819	13833.627
565.947	13663.098
566.075	13691.529
566.203	13701.235
566.331	13679.608
566.459	14564.882
566.588	13788.804
566.716	13780.765
566.844	13777.627
566.972	13875.529
567.100	13863.392
567.228	13949.804
567.356	13980.235
567.484	13950.314
567.613	14066.157
567.741	14003.373
567.869	14033.000
567.997	14029.392
568.125	14109.745
568.253	14208.529
568.381	14151.255
568.509	14170.765
568.638	14193.196
568.766	14228.863
568.894	14212.059
569.022	14197.275
569.150	14316.588
569.278	14242.353
569.406	14373.412
569.534	14323.118
569.663	14273.020
569.791	14312.863
569.919	14370.275
570.047	14472.294
570.175	14340.216
570.303	14389.569
570.431	14349.725
570.559	14479.627
570.688	14582.314
570.816	14398.098
570.944	14497.255
571.072	14424.275
571.200	14384.510
571.328	14455.725
571.456	14503.137
571.584	14457.941
571.713	14450.765
571.841	14470.922
571.969	14586.549
572.097	14532.804
572.225	14385.686
572.353	14405.412
572.481	14311.725
572.609	14408.961
572.738	14376.078
572.866	14359.569
572.994	14353.196
573.122	14368.627
573.250	14340.412
573.378	14337.804
573.506	14316.353
573.634	14376.961
573.763	14334.902
573.891	14262.627
574.019	14340.176
574.147	14293.765
574.275	14301.471
574.403	14302.118
574.531	14289.216
574.659	14253.765
574.788	14235.176
574.916	14433.627
575.044	14240.255
575.172	14287.647
575.300	14308.490
575.428	14281.608
575.556	14279.529
575.684	14300.059
575.813	14270.255
575.941	14289.275
576.069	14268.137
576.197	14398.941
576.325	14286.333
576.453	14351.588
576.581	14337.098
576.709	14350.471
576.838	14403.824
576.966	14506.529
577.094	14622.706
577.222	14561.118
577.350	14538.529
577.478	14658.824
577.606	14565.588
577.734	14663.745
577.863	14723.059
577.991	14809.333
578.119	14936.667
578.247	14894.569
578.375	15017.529
578.503	14958.255
578.631	14980.098
578.759	15077.431
578.888	15245.353
579.016	15069.137
579.144	15119.922
579.272	15159.490
579.400	15194.275
579.528	15296.176
579.656	15351.314
579.784	15264.647
579.913	15326.314
580.041	15482.627
580.169	15393.078
580.297	15410.745
580.425	15483.294
580.553	15482.275
580.681	15587.706
580.809	15533.353
580.938	15606.294
581.066	15711.196
581.194	15664.275
581.322	15709.529
581.450	15799.392
581.578	15902.588
581.706	15851.059
581.834	15963.529
581.963	16063.980
582.091	16012.431
582.219	16100.608
582.347	16160.196
582.475	16145.627
582.603	16192.431
582.731	16330.235
582.859	16252.353
582.988	16347.588
583.116	16328.608
583.244	16325.059
583.372	16424.706
583.500	16400.255
583.628	16541.588
583.756	16517.451
583.884	16512.255
584.013	16611.706
584.141	16590.235
584.269	16602.431
584.397	16643.490
584.525	16635.765
584.653	16671.392
584.781	16696.078
584.909	16709.706
585.038	16733.647
585.166	16702.647
585.294	16778.039
585.422	16704.784
585.550	16698.039
585.678	16679.510
585.806	16771.137
585.934	16720.667
586.063	16767.686
586.191	16760.353
586.319	16811.549
586.447	16764.118
586.575	16804.157
586.703	16825.235
586.831	16772.333
586.959	16817.373
587.088	16692.961
587.216	16755.824
587.344	16712.882
587.472	16862.529
587.600	16646.333
587.728	16727.412
587.856	16756.000
587.984	16711.059
588.113	16788.255
588.241	16812.549
588.369	16799.353
588.497	16828.020
588.625	16851.588
588.753	16989.451
588.881	16899.000
589.009	16942.294
589.138	16925.314
589.266	16925.980
589.394	16979.431
589.522	16987.078
589.650	17093.961
589.778	17037.471
589.906	17153.725
590.034	17096.529
590.163	17071.588
590.291	17159.216
590.419	17089.275
590.547	17237.529
590.675	17210.902
590.803	17212.863
590.931	17162.863
591.059	17132.275
591.188	17139.412
591.316	17142.765
591.444	17142.275
591.572	17243.235
591.700	17140.275
591.828	17119.549
591.956	17205.863
592.084	17097.392
592.213	17125.333
592.341	17097.608
592.469	17095.412
592.597	17078.765
592.725	16965.922
592.853	17049.392
592.981	17103.137
593.109	17065.804
593.238	16931.941
593.366	16921.804
593.494	16926.176
593.622	16959.059
593.750	16902.569
593.878	16921.118
594.006	16791.549
594.134	16869.333
594.263	16893.824
594.391	16785.843
594.519	16742.608
594.647	16774.294
594.775	16664.882
594.903	16691.294
595.031	16677.706
595.159	16621.980
595.288	16614.588
595.416	16602.353
595.544	16626.412
595.672	16481.314
595.800	16582.686
595.928	16493.039
596.056	16495.392
596.184	16332.706
596.313	16610.980
596.441	16392.667
596.569	16418.412
596.697	16310.863
596.825	16340.176
596.953	16346.451
597.081	16307.157
597.209	16239.020
597.338	16316.118
597.466	16308.490
597.594	16307.510
597.722	16450.333
597.850	16316.196
597.978	16370.725
598.106	16444.431
598.234	16419.451
598.363	16341.196
598.491	16533.412
598.619	16399.843
598.747	16489.412
598.875	16573.294
599.003	16615.235
599.131	16669.314
599.259	16641.255
599.388	16613.471
599.516	16758.157
599.644	16815.804
599.772	16887.353
599.900	16824.314
600.028	16828.471
600.156	16884.706
600.284	16857.255
600.413	16912.314
600.541	16905.902
600.669	17034.569
600.797	16943.373
600.925	17003.118
601.053	16998.412
601.181	17055.608
601.309	16969.020
601.438	16913.647
601.566	16976.902
601.694	17040.118
601.822	17212.569
601.950	17007.235
602.078	17010.196
602.206	17054.863
602.334	16987.000
602.463	17023.098
602.591	17125.275
602.719	17021.314
602.847	17249.804
602.975	17076.686
603.103	17048.137
603.231	17082.137
603.359	17032.510
603.488	17022.647
603.616	17071.059
603.744	17060.863
603.872	17074.078
604.000	17071.804
604.128	17049.667
604.256	17078.863
604.384	17054.412
604.513	17083.588
604.641	17101.451
604.769	17131.510
604.897	16979.882
605.025	16923.765
605.153	17000.020
605.281	17009.314
605.409	16906.020
605.538	16944.059
605.666	16947.137
605.794	16876.059
605.922	16944.431
606.050	16881.784
606.178	16945.725
606.306	16884.941
606.434	16939.706
606.563	16865.902
606.691	16868.196
606.819	16894.294
606.947	16817.863
607.075	16827.471
607.203	16801.118
607.331	16802.000
607.459	16750.255
607.588	16762.235
607.716	16773.529
607.844	16813.961
607.972	16823.255
608.100	16721.314
608.228	16754.020
608.356	16766.725
608.484	16699.863
608.613	16751.706
608.741	16687.961
608.869	16679.765
608.997	16699.078
609.125	16667.843
609.253	16570.451
609.381	16539.118
609.509	16511.824
609.638	16451.471
609.766	16417.216
609.894	16487.216
610.022	16358.059
610.150	16532.863
610.278	16374.118
610.406	16366.863
610.534	16430.176
610.663	16293.176
610.791	16481.922
610.919	16361.373
611.047	16375.235
611.175	16273.549
611.303	16323.059
611.431	16224.157
611.559	16242.392
611.688	16203.686
611.816	16166.176
611.944	16088.549
612.072	16165.569
612.200	16169.176
612.328	16194.824
612.456	16113.824
612.584	16251.078
612.713	16104.686
612.841	16116.176
612.969	16040.196
613.097	16041.510
613.225	16042.137
613.353	16024.392
613.481	16003.784
613.609	15969.294
613.738	16036.216
613.866	16083.627
613.994	16042.608
614.122	16080.176
614.250	15969.216
614.378	16021.745
614.506	16011.235
614.634	16036.490
614.763	16005.039
614.891	16048.020
615.019	15998.902
615.147	16035.608
615.275	15987.686
615.403	15996.647
615.531	16007.255
615.659	16028.843
615.788	15989.314
615.916	16058.922
616.044	15916.078
616.172	16133.863
616.300	15888.824
616.428	16057.176
616.556	15956.941
616.684	16006.216
616.813	15982.490
616.941	15985.980
617.069	15954.118
617.197	16141.039
617.325	15973.882
617.453	16011.392
617.581	16077.255
617.709	15943.686
617.838	15989.098
617.966	16059.392
618.094	15988.490
618.222	16086.961
618.350	16103.863
618.478	16004.902
618.606	16129.902
618.734	16128.216
618.863	16130.000
618.991	16119.118
619.119	16182.882
619.247	16152.588
619.375	16154.627
619.503	16267.922
619.631	16371.843
619.759	16186.392
619.888	16167.804
620.016	16284.765
620.144	16305.137
620.272	16206.804
620.400	16351.137
620.528	16340.745
620.656	16443.020
620.784	16290.431
620.913	16316.020
621.041	16353.255
621.169	16438.510
621.297	16425.451
621.425	16395.706
621.553	16373.902
621.681	16505.373
621.809	16455.647
621.938	16429.784
622.066	16510.980
622.194	16437.647
622.322	16476.490
622.450	16475.039
622.578	16436.824
622.706	16494.039
622.834	16482.980
622.963	16499.431
623.091	16441.431
623.219	16477.059
623.347	16569.843
623.475	16545.157
623.603	16481.765
623.731	16526.412
623.859	16561.922
623.988	16591.255
624.116	16554.176
624.244	16588.176
624.372	16544.706
624.500	16534.098
624.628	16538.157
624.756	16593.490
624.884	16659.275
625.013	16795.471
625.141	16623.353
625.269	16604.275
625.397	16660.333
625.525	16690.765
625.653	16574.137
625.781	16700.098
625.909	16531.804
626.038	16556.490
626.166	16597.922
626.294	16577.353
626.422	16606.686
626.550	16671.627
626.678	16671.020
626.806	16541.863
626.934	16613.765
627.063	16654.588
627.191	16604.824
627.319	16671.078
627.447	16581.275
627.575	16605.647
627.703	16632.078
627.831	16622.608
627.959	16637.490
628.088	16722.471
628.216	16734.000
628.344	16640.529
628.472	16619.020
628.600	16747.902
628.728	16601.020
628.856	16571.882
628.984	16556.059
